AF3,F7,F3,FC5,T7,P7,O1,O2,P8,T8,FC6,F4,F8,AF4
4239.487076,4223.58964,4233.84605,4232.820409,4247.179383,4224.102461,4232.307589,4218.974256,4216.922974,4220.512717,4232.820409,4258.461434,4212.307589,4242.051178
4239.999896,4222.563999,4234.358871,4214.358871,4251.794768,4214.871692,4231.281948,4222.563999,4214.358871,4221.025538,4231.281948,4254.871691,4214.358871,4239.999896
4234.358871,4215.384512,4229.743486,4222.051179,4261.538357,4218.974256,4233.33323,4226.153743,4218.461435,4229.230666,4231.794768,4248.717845,4215.384512,4232.307589
4231.281948,4216.410153,4227.179384,4244.615281,4249.230665,4221.025538,4232.820409,4226.666563,4224.102461,4227.179384,4231.794768,4249.743486,4213.33323,4230.769127
4232.820409,4219.999897,4230.256307,4235.384512,4230.256307,4213.33323,4228.717845,4222.051179,4219.999897,4214.358871,4230.769127,4251.794768,4208.717846,4233.84605
4233.84605,4213.33323,4227.692204,4219.999897,4229.743486,4216.922974,4227.179384,4217.435794,4215.897333,4209.230666,4230.256307,4248.205024,4206.666564,4234.871691
4227.692204,4210.256307,4216.410153,4227.179384,4248.205024,4228.205025,4229.230666,4217.435794,4221.025538,4212.82041,4225.640922,4243.076819,4205.128102,4229.743486
4227.692204,4217.435794,4218.974256,4232.307589,4261.025537,4227.692204,4231.281948,4219.487076,4219.487076,4220.512717,4226.153743,4245.128101,4209.743487,4228.205025
4239.487076,4218.461435,4232.307589,4234.358871,4251.794768,4218.461435,4226.666563,4219.487076,4217.435794,4223.07682,4234.358871,4251.794768,4217.435794,4239.999896
4245.640922,4218.461435,4234.358871,4231.281948,4246.153742,4219.999897,4222.563999,4217.948615,4224.615281,4221.025538,4233.84605,4253.333229,4215.384512,4248.205024
4238.974255,4223.58964,4227.692204,4222.051179,4250.256306,4230.769127,4229.230666,4218.461435,4223.07682,4228.205025,4229.230666,4247.692204,4213.33323,4237.435794
4234.871691,4222.051179,4226.666563,4226.666563,4238.461435,4225.640922,4232.307589,4218.974256,4214.871692,4227.692204,4231.794768,4244.615281,4216.922974,4229.743486
4237.435794,4215.384512,4226.153743,4235.384512,4226.666563,4210.769128,4221.025538,4216.410153,4215.384512,4211.281948,4228.205025,4246.666563,4213.846051,4236.922973
4235.384512,4217.948615,4221.025538,4230.769127,4238.974255,4211.281948,4215.384512,4211.794769,4216.922974,4205.128102,4220.512717,4246.153742,4205.640923,4236.922973
4236.922973,4219.487076,4221.538358,4228.205025,4260.512716,4221.538358,4227.179384,4213.33323,4216.410153,4224.615281,4224.615281,4248.205024,4210.769128,4232.820409
4245.128101,4217.435794,4229.230666,4237.435794,4261.538357,4220.512717,4234.358871,4225.128102,4216.922974,4239.487076,4240.512717,4256.410152,4221.025538,4239.487076
4247.179383,4225.128102,4239.487076,4242.051178,4251.281947,4221.025538,4230.769127,4229.743486,4216.922974,4230.769127,4244.10246,4261.538357,4219.487076,4246.666563
4248.205024,4232.820409,4243.58964,4237.435794,4256.410152,4231.794768,4230.769127,4222.051179,4224.615281,4222.051179,4237.948614,4263.076819,4216.410153,4249.230665
4248.717845,4233.33323,4238.974255,4224.102461,4258.974255,4234.358871,4235.384512,4220.512717,4232.820409,4228.717845,4239.487076,4261.025537,4219.487076,4248.205024
4236.922973,4226.153743,4227.179384,4213.846051,4237.948614,4223.07682,4231.281948,4221.538358,4223.07682,4237.435794,4238.461435,4250.769127,4214.871692,4235.897332
4228.717845,4221.025538,4223.58964,4224.615281,4232.307589,4214.358871,4226.666563,4217.435794,4213.33323,4228.717845,4229.230666,4244.10246,4208.205025,4228.717845
4234.871691,4226.153743,4229.743486,4240.512717,4255.897332,4219.999897,4230.769127,4215.384512,4217.948615,4217.948615,4229.743486,4249.230665,4215.384512,4237.948614
4236.922973,4224.615281,4225.640922,4236.410153,4254.35887,4222.563999,4226.666563,4217.435794,4218.461435,4220.512717,4236.922973,4252.820409,4213.846051,4238.461435
4225.128102,4211.281948,4215.384512,4226.666563,4241.025537,4213.33323,4217.948615,4215.897333,4213.846051,4221.025538,4230.769127,4247.692204,4201.025538,4227.692204
4219.487076,4210.256307,4216.410153,4230.256307,4246.153742,4205.128102,4216.922974,4215.897333,4213.846051,4214.871692,4223.07682,4245.640922,4204.102461,4228.717845
4224.615281,4217.435794,4217.435794,4223.58964,4237.435794,4208.717846,4219.487076,4215.897333,4215.897333,4212.82041,4226.666563,4246.153742,4212.82041,4232.820409
4231.794768,4218.461435,4216.922974,4211.794769,4233.84605,4222.563999,4223.58964,4216.922974,4221.538358,4216.922974,4232.307589,4248.717845,4210.769128,4232.307589
4232.820409,4219.999897,4223.07682,4219.487076,4255.384511,4229.230666,4232.307589,4227.692204,4227.179384,4225.128102,4233.84605,4248.205024,4212.307589,4231.281948
4228.205025,4220.512717,4223.58964,4235.897332,4257.435793,4225.640922,4234.871691,4233.84605,4226.153743,4237.948614,4231.281948,4247.179383,4216.922974,4228.205025
4232.820409,4222.563999,4224.615281,4242.563999,4245.640922,4227.179384,4233.33323,4231.281948,4229.743486,4247.179383,4235.897332,4256.922973,4217.948615,4235.384512
4237.435794,4230.769127,4232.820409,4238.461435,4250.256306,4229.743486,4235.384512,4230.769127,4230.769127,4239.487076,4240.512717,4261.538357,4219.487076,4246.153742
4230.769127,4223.58964,4230.769127,4230.256307,4249.230665,4223.58964,4232.307589,4224.615281,4219.487076,4218.974256,4232.820409,4250.769127,4216.410153,4236.410153
4227.179384,4215.897333,4225.640922,4226.666563,4246.153742,4215.384512,4231.281948,4218.461435,4216.922974,4214.358871,4231.281948,4249.743486,4212.307589,4226.153743
4232.820409,4224.102461,4230.256307,4230.769127,4257.435793,4215.384512,4232.307589,4223.58964,4224.102461,4232.820409,4241.025537,4261.025537,4216.410153,4238.461435
4234.871691,4226.153743,4234.871691,4233.84605,4243.58964,4217.435794,4230.769127,4223.58964,4221.025538,4241.538358,4240.512717,4263.076819,4220.512717,4249.230665
4233.33323,4216.410153,4235.384512,4231.794768,4222.563999,4216.922974,4231.281948,4215.897333,4214.358871,4225.128102,4233.33323,4261.538357,4225.128102,4249.230665
4234.358871,4212.307589,4232.307589,4229.230666,4242.563999,4213.33323,4231.794768,4219.487076,4216.922974,4216.922974,4236.922973,4261.025537,4230.256307,4246.666563
4239.999896,4219.999897,4230.769127,4233.33323,4267.692203,4219.487076,4234.871691,4230.769127,4224.102461,4232.307589,4244.10246,4262.051178,4232.307589,4249.230665
4248.717845,4229.743486,4243.58964,4239.487076,4265.640921,4229.230666,4239.999896,4232.307589,4229.230666,4241.538358,4249.743486,4270.256306,4234.871691,4258.974255
4253.333229,4232.820409,4248.717845,4231.794768,4263.589639,4219.487076,4239.487076,4231.794768,4231.281948,4238.461435,4250.256306,4271.794767,4236.922973,4258.461434
4246.153742,4230.256307,4236.410153,4227.692204,4261.025537,4215.384512,4234.358871,4231.794768,4228.717845,4240.512717,4245.128101,4263.589639,4234.358871,4247.692204
4236.410153,4221.025538,4229.230666,4230.769127,4251.281947,4226.153743,4233.33323,4224.102461,4219.487076,4237.948614,4239.487076,4260.512716,4231.281948,4244.10246
4229.743486,4214.871692,4229.230666,4225.128102,4246.153742,4223.58964,4231.794768,4219.999897,4213.33323,4225.640922,4236.922973,4258.974255,4227.692204,4245.128101
4229.743486,4224.615281,4226.666563,4225.640922,4233.84605,4219.999897,4230.769127,4228.205025,4220.512717,4225.128102,4238.974255,4257.435793,4224.102461,4243.58964
4238.461435,4230.256307,4230.769127,4232.820409,4233.84605,4225.640922,4234.871691,4234.358871,4232.820409,4235.897332,4245.640922,4260.512716,4229.230666,4247.179383
4242.563999,4220.512717,4235.897332,4232.307589,4262.563998,4218.974256,4235.384512,4231.281948,4231.281948,4236.410153,4251.794768,4265.640921,4236.922973,4251.794768
4235.384512,4218.461435,4232.820409,4229.230666,4268.717844,4209.743487,4231.794768,4230.256307,4226.666563,4232.307589,4247.179383,4266.666562,4232.820409,4249.743486
4226.153743,4223.07682,4230.256307,4230.769127,4249.230665,4223.07682,4232.820409,4234.358871,4229.230666,4231.794768,4236.922973,4260.512716,4228.205025,4241.025537
4225.128102,4218.974256,4229.230666,4226.666563,4257.435793,4231.794768,4235.384512,4231.794768,4229.743486,4230.769127,4232.820409,4253.84605,4228.717845,4233.33323
4231.794768,4216.410153,4230.769127,4231.794768,4265.640921,4222.563999,4235.897332,4231.281948,4226.153743,4230.256307,4239.999896,4259.487075,4230.769127,4238.461435
4235.897332,4216.922974,4233.84605,4237.948614,4238.974255,4213.846051,4233.33323,4230.769127,4226.666563,4232.307589,4240.512717,4264.61528,4230.769127,4242.051178
4230.256307,4213.846051,4226.153743,4224.102461,4230.769127,4212.82041,4226.666563,4221.025538,4222.563999,4228.717845,4233.33323,4252.307588,4225.128102,4232.307589
4225.128102,4213.33323,4218.974256,4219.487076,4256.922973,4218.461435,4226.153743,4220.512717,4217.435794,4227.179384,4232.307589,4248.205024,4222.051179,4228.205025
4230.769127,4214.358871,4228.205025,4232.820409,4273.333229,4219.999897,4233.33323,4232.820409,4221.538358,4234.871691,4239.487076,4259.999896,4230.769127,4239.487076
4235.897332,4214.871692,4233.84605,4231.281948,4259.999896,4211.794769,4229.230666,4226.153743,4220.512717,4224.615281,4239.999896,4258.461434,4230.769127,4246.666563
4232.820409,4216.410153,4227.179384,4213.846051,4248.205024,4210.256307,4221.538358,4209.230666,4215.384512,4217.948615,4235.384512,4246.666563,4219.487076,4241.538358
4232.820409,4216.922974,4231.281948,4212.307589,4259.487075,4222.563999,4228.717845,4219.487076,4221.538358,4239.999896,4235.384512,4249.230665,4222.051179,4236.410153
4233.33323,4213.846051,4231.281948,4226.666563,4258.461434,4223.58964,4233.33323,4231.281948,4227.179384,4241.025537,4235.897332,4255.384511,4227.179384,4234.871691
4231.281948,4211.794769,4217.435794,4230.256307,4234.358871,4213.33323,4225.640922,4218.974256,4218.461435,4217.948615,4227.692204,4248.205024,4216.922974,4232.307589
4234.871691,4214.871692,4221.538358,4234.358871,4236.410153,4214.871692,4228.717845,4212.82041,4214.871692,4220.512717,4227.692204,4247.179383,4217.435794,4233.33323
4233.33323,4213.846051,4231.281948,4233.84605,4263.076819,4218.974256,4231.794768,4226.666563,4224.102461,4228.717845,4227.179384,4250.256306,4224.102461,4233.33323
4226.666563,4208.717846,4224.102461,4220.512717,4264.61528,4213.33323,4223.58964,4232.820409,4228.205025,4219.999897,4219.999897,4248.205024,4218.461435,4229.230666
4237.435794,4214.871692,4226.153743,4218.974256,4256.410152,4213.846051,4225.640922,4222.563999,4219.487076,4220.512717,4226.666563,4257.435793,4223.07682,4238.461435
4247.179383,4217.948615,4235.384512,4233.84605,4256.922973,4219.487076,4233.33323,4219.999897,4215.897333,4224.102461,4241.025537,4264.10246,4234.358871,4246.666563
4237.948614,4213.33323,4231.281948,4226.666563,4261.025537,4217.948615,4231.281948,4226.666563,4223.58964,4226.153743,4234.871691,4253.84605,4223.58964,4235.897332
4237.948614,4223.07682,4234.871691,4205.128102,4261.538357,4219.487076,4230.256307,4224.102461,4224.102461,4237.435794,4230.256307,4255.384511,4216.922974,4232.820409
4250.256306,4231.794768,4243.58964,4219.487076,4242.563999,4219.999897,4230.256307,4215.384512,4217.948615,4237.435794,4235.897332,4265.640921,4229.230666,4239.487076
4248.205024,4223.07682,4234.358871,4241.538358,4236.410153,4213.846051,4227.692204,4218.461435,4220.512717,4230.769127,4232.307589,4254.35887,4231.281948,4232.820409
4241.025537,4223.07682,4227.692204,4238.974255,4262.051178,4216.410153,4231.281948,4229.743486,4228.205025,4232.307589,4235.384512,4247.692204,4227.179384,4226.666563
4245.640922,4233.33323,4232.307589,4232.820409,4272.820408,4229.230666,4235.384512,4233.33323,4230.769127,4235.384512,4250.256306,4261.538357,4232.307589,4233.84605
4246.666563,4232.307589,4235.384512,4234.871691,4260.512716,4234.871691,4232.307589,4230.256307,4230.256307,4233.84605,4252.820409,4266.153742,4234.871691,4239.487076
4244.10246,4228.717845,4235.897332,4237.948614,4262.051178,4227.179384,4231.794768,4230.256307,4231.794768,4230.256307,4245.640922,4264.61528,4232.820409,4242.051178
4242.563999,4223.07682,4232.820409,4230.769127,4262.563998,4220.512717,4232.820409,4231.794768,4231.281948,4231.281948,4241.538358,4263.589639,4226.666563,4239.999896
4235.897332,4215.384512,4227.179384,4217.948615,4242.051178,4216.922974,4230.256307,4231.281948,4230.256307,4242.563999,4235.384512,4253.333229,4221.538358,4231.794768
4235.897332,4223.07682,4230.769127,4220.512717,4235.897332,4217.948615,4234.358871,4232.307589,4229.743486,4252.307588,4235.384512,4251.794768,4228.205025,4233.84605
4246.153742,4236.922973,4236.922973,4239.487076,4254.35887,4225.640922,4241.025537,4232.307589,4229.743486,4243.076819,4242.563999,4263.076819,4234.358871,4237.948614
4245.128101,4231.794768,4235.384512,4242.563999,4266.153742,4225.128102,4238.461435,4229.230666,4231.281948,4233.84605,4243.58964,4263.076819,4230.769127,4232.820409
4234.871691,4221.538358,4232.820409,4227.692204,4265.128101,4218.461435,4231.794768,4230.256307,4228.205025,4238.461435,4241.025537,4254.871691,4227.692204,4232.307589
4234.358871,4223.58964,4226.666563,4219.487076,4262.051178,4217.948615,4231.794768,4226.153743,4219.999897,4244.10246,4229.743486,4248.205024,4225.640922,4231.281948
4230.769127,4221.025538,4212.82041,4211.794769,4252.307588,4217.948615,4232.307589,4216.922974,4219.999897,4237.435794,4218.461435,4241.025537,4218.974256,4219.999897
4225.640922,4215.384512,4211.281948,4212.307589,4248.717845,4216.410153,4231.794768,4220.512717,4228.717845,4233.33323,4227.692204,4244.615281,4218.461435,4221.025538
4234.358871,4219.999897,4229.743486,4226.666563,4248.205024,4224.615281,4235.384512,4233.33323,4232.307589,4240.512717,4239.999896,4259.487075,4226.666563,4233.33323
4237.435794,4222.051179,4232.307589,4230.769127,4230.769127,4223.58964,4231.794768,4231.281948,4228.717845,4234.358871,4233.33323,4259.487075,4228.205025,4233.33323
4227.692204,4217.948615,4216.410153,4226.153743,4231.794768,4205.128102,4222.051179,4218.461435,4221.538358,4218.974256,4225.640922,4246.153742,4224.102461,4226.153743
4226.666563,4224.615281,4217.948615,4230.769127,4261.025537,4207.179384,4223.07682,4215.384512,4217.948615,4226.666563,4231.794768,4250.769127,4224.615281,4229.743486
4235.384512,4231.794768,4230.256307,4235.897332,4262.563998,4222.051179,4231.281948,4221.025538,4220.512717,4236.922973,4234.871691,4262.051178,4226.153743,4236.922973
4232.307589,4221.538358,4226.666563,4224.615281,4244.10246,4220.512717,4233.33323,4222.051179,4221.025538,4225.640922,4226.153743,4251.794768,4217.948615,4229.743486
4227.692204,4214.871692,4216.922974,4218.461435,4243.076819,4214.871692,4225.640922,4216.410153,4217.435794,4224.102461,4219.999897,4242.051178,4214.871692,4219.999897
4232.307589,4217.948615,4219.487076,4223.07682,4247.692204,4213.33323,4218.461435,4216.410153,4218.461435,4233.33323,4226.666563,4250.256306,4222.051179,4225.128102
4231.281948,4217.948615,4219.487076,4218.461435,4249.230665,4212.82041,4223.07682,4228.205025,4227.179384,4226.666563,4232.307589,4250.769127,4220.512717,4232.820409
4233.33323,4223.07682,4217.435794,4221.025538,4237.948614,4216.922974,4229.230666,4230.769127,4231.794768,4219.487076,4227.692204,4245.640922,4218.461435,4229.230666
4243.58964,4233.33323,4226.153743,4228.205025,4219.999897,4218.974256,4223.58964,4219.999897,4223.58964,4223.07682,4231.281948,4253.333229,4228.717845,4230.769127
4246.666563,4231.794768,4234.358871,4224.615281,4231.794768,4214.871692,4217.435794,4215.384512,4215.897333,4225.640922,4235.897332,4258.974255,4234.871691,4239.999896
4236.922973,4225.640922,4231.794768,4218.461435,4251.794768,4214.871692,4218.974256,4216.922974,4217.948615,4231.794768,4225.640922,4252.307588,4225.128102,4235.897332
4234.871691,4231.281948,4229.230666,4229.230666,4242.051178,4209.230666,4217.435794,4218.461435,4217.435794,4231.281948,4221.538358,4252.820409,4215.384512,4228.205025
4241.538358,4233.84605,4231.794768,4235.897332,4229.743486,4202.051179,4215.897333,4223.07682,4215.897333,4223.07682,4233.33323,4259.999896,4222.563999,4232.820409
4236.410153,4225.640922,4225.128102,4219.999897,4237.948614,4209.230666,4217.435794,4224.102461,4218.974256,4222.563999,4233.33323,4253.84605,4228.205025,4230.769127
4226.153743,4220.512717,4214.358871,4216.410153,4239.999896,4214.871692,4217.948615,4217.948615,4219.487076,4227.179384,4219.999897,4243.58964,4220.512717,4217.435794
4225.128102,4219.487076,4217.435794,4225.640922,4218.974256,4209.743487,4222.563999,4216.922974,4223.07682,4228.717845,4221.025538,4247.179383,4213.33323,4214.871692
4230.256307,4222.563999,4226.153743,4221.538358,4207.692205,4211.281948,4227.692204,4225.128102,4228.717845,4230.769127,4232.307589,4250.769127,4216.922974,4225.640922
4233.84605,4229.743486,4229.743486,4219.487076,4226.153743,4218.974256,4231.281948,4231.281948,4226.153743,4228.717845,4235.384512,4250.256306,4225.128102,4233.84605
4232.307589,4229.743486,4228.205025,4229.743486,4241.538358,4217.948615,4229.743486,4229.230666,4219.487076,4226.666563,4232.307589,4254.871691,4224.615281,4234.358871
4230.769127,4224.102461,4226.666563,4225.640922,4235.897332,4211.281948,4221.025538,4228.205025,4219.487076,4232.820409,4231.794768,4254.35887,4223.58964,4233.33323
4230.769127,4226.666563,4227.692204,4214.358871,4235.897332,4212.82041,4219.999897,4225.128102,4221.025538,4236.922973,4227.692204,4248.717845,4226.666563,4234.358871
4235.897332,4236.922973,4228.717845,4223.07682,4246.666563,4215.897333,4227.692204,4222.563999,4227.179384,4234.871691,4224.102461,4251.794768,4226.153743,4236.922973
4234.871691,4231.794768,4223.58964,4219.487076,4244.615281,4215.384512,4224.615281,4223.58964,4231.281948,4225.640922,4224.102461,4253.84605,4221.538358,4235.384512
4224.615281,4217.435794,4215.897333,4204.102461,4224.615281,4215.384512,4215.384512,4222.563999,4223.07682,4216.922974,4221.538358,4247.179383,4215.897333,4230.256307
4226.666563,4218.974256,4221.025538,4212.307589,4205.640923,4209.230666,4218.974256,4217.435794,4222.563999,4228.205025,4221.538358,4246.666563,4219.487076,4228.717845
4238.461435,4232.820409,4232.820409,4224.102461,4218.461435,4203.07682,4226.153743,4223.58964,4231.794768,4244.615281,4232.820409,4256.922973,4229.743486,4235.897332
4239.999896,4233.84605,4234.871691,4216.410153,4241.025537,4210.769128,4228.717845,4231.794768,4231.794768,4242.563999,4241.538358,4264.61528,4233.84605,4246.666563
4234.871691,4229.743486,4231.281948,4217.435794,4238.461435,4220.512717,4225.128102,4224.102461,4230.256307,4230.256307,4233.84605,4262.563998,4229.743486,4248.205024
4236.410153,4237.435794,4231.794768,4232.820409,4230.769127,4214.871692,4218.461435,4214.358871,4229.743486,4220.512717,4222.051179,4251.794768,4226.153743,4237.948614
4233.84605,4231.794768,4228.717845,4230.769127,4229.743486,4205.128102,4216.410153,4214.871692,4221.025538,4215.384512,4217.948615,4242.051178,4219.487076,4226.666563
4229.743486,4218.461435,4222.563999,4215.384512,4224.102461,4202.051179,4216.922974,4216.922974,4218.461435,4224.102461,4216.922974,4244.10246,4213.33323,4228.205025
4231.281948,4225.640922,4221.538358,4217.435794,4211.281948,4202.564,4213.846051,4214.358871,4223.58964,4230.769127,4218.974256,4246.153742,4218.974256,4234.358871
4230.769127,4235.897332,4222.051179,4226.666563,4202.564,4201.538359,4212.307589,4210.256307,4214.871692,4214.871692,4214.358871,4237.435794,4216.922974,4225.640922
4236.410153,4239.487076,4226.153743,4227.692204,4216.922974,4202.051179,4215.897333,4213.846051,4213.846051,4207.692205,4210.256307,4233.84605,4209.743487,4218.461435
4247.179383,4247.179383,4234.871691,4233.84605,4241.538358,4212.307589,4217.948615,4219.487076,4228.717845,4227.179384,4222.563999,4246.666563,4214.358871,4231.794768
4240.512717,4248.205024,4232.307589,4234.871691,4244.10246,4217.435794,4215.897333,4218.461435,4231.794768,4238.461435,4231.794768,4252.820409,4222.051179,4237.948614
4228.717845,4235.897332,4221.025538,4224.615281,4232.307589,4210.256307,4214.871692,4215.384512,4227.179384,4224.615281,4221.538358,4242.563999,4219.999897,4224.102461
4228.717845,4229.743486,4214.871692,4219.487076,4226.666563,4197.948615,4211.281948,4214.358871,4224.615281,4211.281948,4208.205025,4231.281948,4209.230666,4213.846051
4226.153743,4229.743486,4215.384512,4217.948615,4228.205025,4196.410154,4209.230666,4216.410153,4222.563999,4214.358871,4207.179384,4233.33323,4203.07682,4214.871692
4221.538358,4229.743486,4216.922974,4211.281948,4227.692204,4209.743487,4214.871692,4223.07682,4223.07682,4223.58964,4215.384512,4243.58964,4212.82041,4219.999897
4225.640922,4232.307589,4217.948615,4216.410153,4217.435794,4211.281948,4218.461435,4222.563999,4222.563999,4227.692204,4219.487076,4244.615281,4222.051179,4225.640922
4231.281948,4231.794768,4223.07682,4230.769127,4208.717846,4200.512718,4216.410153,4216.922974,4220.512717,4227.692204,4214.871692,4239.487076,4216.410153,4227.179384
4233.84605,4231.281948,4229.743486,4236.922973,4219.999897,4205.640923,4214.871692,4215.897333,4221.025538,4222.563999,4216.922974,4239.999896,4214.871692,4231.281948
4233.84605,4233.84605,4224.615281,4228.717845,4232.307589,4216.922974,4213.846051,4216.922974,4218.974256,4213.33323,4219.487076,4244.615281,4218.974256,4230.256307
4228.205025,4235.384512,4216.922974,4215.897333,4225.640922,4210.769128,4212.307589,4216.410153,4219.487076,4216.410153,4211.281948,4242.051178,4217.435794,4220.512717
4228.205025,4231.794768,4219.487076,4218.461435,4214.358871,4201.025538,4214.358871,4215.384512,4223.58964,4226.153743,4207.179384,4234.358871,4214.358871,4218.974256
4235.384512,4230.769127,4227.692204,4233.84605,4218.461435,4205.128102,4214.871692,4216.922974,4219.487076,4229.743486,4218.461435,4236.922973,4217.435794,4230.256307
4239.487076,4237.435794,4234.358871,4238.461435,4222.563999,4213.33323,4215.897333,4227.692204,4220.512717,4230.256307,4226.666563,4249.743486,4224.615281,4237.948614
4235.384512,4234.871691,4228.205025,4230.256307,4207.692205,4215.384512,4217.435794,4230.256307,4229.743486,4228.205025,4216.922974,4246.666563,4222.563999,4230.256307
4232.820409,4221.538358,4218.974256,4224.102461,4198.974256,4205.128102,4214.871692,4223.07682,4229.230666,4216.922974,4207.692205,4233.84605,4215.384512,4221.025538
4234.871691,4223.07682,4226.666563,4226.666563,4218.974256,4202.051179,4213.846051,4225.640922,4230.256307,4212.82041,4211.281948,4235.384512,4215.384512,4222.051179
4237.435794,4234.871691,4233.84605,4231.281948,4229.230666,4211.281948,4215.384512,4227.179384,4229.743486,4221.025538,4210.769128,4241.538358,4215.897333,4223.58964
4235.897332,4235.897332,4223.58964,4232.820409,4217.948615,4211.794769,4212.82041,4214.871692,4221.025538,4224.102461,4198.461436,4235.897332,4214.871692,4219.999897
4235.897332,4230.769127,4216.922974,4230.769127,4217.435794,4208.205025,4212.307589,4212.307589,4220.512717,4216.410153,4201.538359,4234.871691,4217.435794,4222.051179
4243.076819,4234.358871,4228.717845,4233.33323,4211.281948,4210.256307,4212.82041,4222.051179,4225.640922,4216.410153,4215.897333,4240.512717,4218.461435,4227.692204
4242.051178,4234.358871,4230.769127,4234.358871,4186.153744,4196.410154,4202.051179,4218.461435,4216.922974,4222.051179,4210.256307,4238.974255,4213.846051,4223.07682
4232.307589,4223.07682,4217.948615,4222.563999,4187.692205,4177.435795,4192.82041,4208.205025,4208.717846,4214.871692,4196.410154,4229.743486,4212.82041,4213.846051
4234.358871,4216.922974,4218.461435,4214.358871,4216.410153,4193.846051,4205.128102,4218.461435,4220.512717,4210.769128,4203.589641,4228.717845,4214.871692,4215.897333
4245.640922,4224.615281,4230.769127,4225.128102,4220.512717,4217.435794,4215.897333,4231.281948,4234.871691,4225.640922,4216.410153,4232.307589,4218.461435,4224.615281
4243.58964,4234.871691,4231.281948,4236.410153,4202.051179,4208.717846,4206.153743,4222.051179,4232.820409,4227.692204,4210.256307,4232.820409,4219.487076,4224.102461
4234.358871,4233.84605,4225.128102,4234.358871,4199.999897,4197.435795,4198.461436,4212.307589,4227.179384,4211.794769,4199.487077,4230.256307,4212.82041,4216.922974
4239.487076,4230.769127,4228.717845,4231.281948,4204.102461,4202.051179,4201.538359,4217.435794,4230.256307,4211.794769,4206.153743,4231.794768,4214.358871,4222.051179
4249.230665,4233.33323,4233.84605,4230.769127,4196.410154,4203.589641,4202.051179,4219.999897,4229.230666,4219.999897,4216.410153,4237.948614,4223.07682,4230.769127
4251.794768,4237.435794,4235.384512,4230.769127,4196.922974,4201.025538,4203.07682,4218.974256,4222.563999,4223.07682,4219.487076,4241.025537,4225.128102,4233.84605
4245.640922,4233.84605,4231.794768,4229.230666,4207.692205,4200.512718,4202.564,4219.487076,4219.999897,4228.205025,4213.33323,4234.358871,4219.487076,4229.230666
4236.922973,4228.205025,4227.179384,4228.205025,4210.769128,4200.512718,4201.025538,4217.435794,4216.922974,4225.640922,4207.692205,4230.256307,4215.897333,4218.974256
4238.461435,4233.33323,4232.307589,4231.794768,4204.102461,4204.615282,4207.179384,4224.615281,4219.487076,4218.461435,4209.743487,4235.897332,4221.025538,4221.538358
4244.615281,4233.33323,4237.435794,4226.666563,4201.025538,4206.153743,4211.794769,4229.743486,4232.820409,4225.640922,4211.281948,4233.84605,4224.615281,4230.769127
4240.512717,4223.58964,4233.84605,4216.922974,4201.538359,4202.564,4210.256307,4223.07682,4231.794768,4221.025538,4204.102461,4233.84605,4219.487076,4230.256307
4232.820409,4225.128102,4228.717845,4222.563999,4206.666564,4201.538359,4207.179384,4221.538358,4218.974256,4198.461436,4201.025538,4243.58964,4215.897333,4227.692204
4233.33323,4236.922973,4229.230666,4232.820409,4199.487077,4200.512718,4206.666564,4222.563999,4220.512717,4203.07682,4202.051179,4237.948614,4215.897333,4228.205025
4239.487076,4239.487076,4233.84605,4236.410153,4182.564,4199.999897,4208.717846,4218.974256,4229.230666,4227.692204,4198.974256,4227.692204,4216.410153,4225.128102
4236.922973,4229.230666,4228.717845,4234.358871,4186.153744,4202.564,4208.205025,4219.999897,4229.743486,4224.102461,4202.051179,4232.820409,4215.384512,4221.025538
4226.666563,4223.07682,4221.538358,4222.051179,4203.589641,4203.07682,4203.589641,4220.512717,4227.692204,4213.846051,4209.230666,4236.922973,4216.410153,4221.538358
4225.128102,4227.179384,4226.153743,4215.384512,4204.615282,4197.948615,4198.974256,4216.922974,4222.051179,4216.410153,4211.281948,4232.307589,4222.563999,4227.179384
4231.281948,4230.256307,4228.717845,4222.563999,4199.487077,4193.333231,4198.461436,4215.897333,4217.435794,4206.666564,4206.666564,4233.33323,4230.256307,4233.84605
4232.820409,4225.640922,4225.640922,4224.102461,4196.410154,4193.333231,4199.487077,4216.410153,4224.102461,4204.615282,4206.666564,4238.974255,4230.256307,4233.33323
4228.205025,4224.102461,4227.692204,4218.461435,4195.897333,4199.999897,4203.589641,4221.538358,4230.769127,4230.769127,4211.794769,4234.871691,4229.230666,4229.230666
4228.205025,4227.692204,4232.307589,4220.512717,4205.128102,4205.128102,4203.07682,4224.102461,4225.128102,4238.974255,4207.692205,4232.307589,4233.84605,4226.153743
4233.84605,4225.128102,4231.281948,4217.435794,4194.358872,4203.589641,4198.974256,4215.897333,4218.461435,4215.897333,4203.07682,4242.563999,4230.256307,4228.205025
4233.84605,4215.897333,4227.692204,4205.128102,4173.846052,4199.487077,4198.974256,4210.256307,4216.922974,4204.615282,4207.179384,4246.666563,4223.58964,4231.281948
4224.102461,4216.922974,4217.435794,4203.589641,4188.717846,4196.922974,4198.974256,4212.82041,4220.512717,4214.871692,4205.128102,4230.769127,4224.102461,4223.58964
4221.538358,4225.128102,4215.897333,4217.435794,4210.256307,4199.999897,4201.025538,4217.435794,4229.230666,4218.974256,4202.564,4223.07682,4229.743486,4216.922974
4227.692204,4224.102461,4228.717845,4225.640922,4204.102461,4205.128102,4203.07682,4220.512717,4230.769127,4215.384512,4205.640923,4234.871691,4232.307589,4226.666563
4228.205025,4222.563999,4228.717845,4224.102461,4199.487077,4205.128102,4201.025538,4218.461435,4222.051179,4214.871692,4205.640923,4237.435794,4227.179384,4229.743486
4229.743486,4231.281948,4221.025538,4224.615281,4206.153743,4201.538359,4198.974256,4213.846051,4214.871692,4214.358871,4209.230666,4232.307589,4224.102461,4221.538358
4233.84605,4230.769127,4222.051179,4217.948615,4209.743487,4202.564,4202.051179,4217.948615,4215.384512,4214.358871,4216.410153,4232.307589,4228.717845,4223.07682
4229.230666,4227.692204,4222.051179,4214.358871,4206.153743,4204.615282,4205.128102,4222.051179,4223.07682,4216.922974,4204.615282,4232.307589,4225.128102,4224.615281
4223.07682,4231.794768,4219.999897,4224.102461,4189.743487,4199.999897,4202.051179,4217.435794,4228.717845,4211.794769,4193.333231,4228.717845,4215.384512,4215.384512
4227.692204,4226.153743,4225.640922,4226.153743,4187.179385,4202.051179,4202.564,4216.922974,4228.205025,4212.307589,4197.948615,4227.179384,4218.974256,4214.358871
4234.358871,4219.487076,4231.794768,4218.974256,4211.794769,4213.846051,4211.281948,4225.128102,4229.230666,4229.743486,4197.948615,4238.461435,4229.743486,4227.692204
4235.897332,4229.230666,4231.281948,4213.33323,4224.102461,4219.487076,4219.487076,4231.281948,4232.820409,4231.794768,4205.640923,4249.743486,4229.743486,4236.410153
4233.33323,4236.922973,4230.256307,4216.922974,4214.358871,4217.948615,4218.974256,4229.743486,4232.307589,4214.358871,4216.410153,4241.025537,4229.230666,4232.307589
4232.820409,4232.820409,4231.281948,4225.128102,4209.743487,4218.461435,4217.435794,4229.230666,4231.794768,4214.358871,4206.666564,4231.794768,4230.769127,4227.179384
4235.384512,4231.794768,4233.33323,4234.358871,4210.769128,4216.410153,4216.410153,4230.256307,4234.358871,4221.538358,4205.128102,4240.512717,4233.84605,4232.307589
4233.33323,4235.897332,4233.33323,4237.948614,4208.205025,4213.33323,4214.358871,4233.33323,4233.84605,4219.999897,4216.922974,4245.128101,4234.871691,4234.871691
4225.128102,4233.33323,4227.692204,4230.769127,4197.948615,4215.897333,4215.897333,4230.256307,4234.358871,4220.512717,4209.743487,4234.358871,4229.230666,4223.58964
4223.07682,4225.128102,4227.692204,4215.897333,4192.30759,4211.281948,4215.897333,4221.025538,4231.794768,4225.128102,4195.384513,4228.717845,4224.102461,4219.487076
4231.281948,4221.538358,4234.358871,4216.410153,4210.769128,4198.974256,4208.717846,4221.025538,4226.666563,4226.153743,4205.128102,4241.025537,4232.307589,4233.33323
4235.384512,4234.358871,4235.897332,4233.84605,4229.230666,4199.999897,4207.179384,4225.128102,4227.179384,4223.58964,4222.563999,4247.179383,4243.076819,4243.58964
4230.256307,4236.922973,4230.256307,4230.769127,4219.487076,4210.256307,4213.33323,4223.58964,4229.230666,4220.512717,4213.846051,4233.84605,4237.435794,4234.871691
4225.128102,4218.974256,4227.692204,4217.948615,4209.743487,4214.358871,4213.846051,4223.58964,4231.281948,4221.538358,4193.846051,4230.769127,4226.153743,4224.102461
4228.717845,4217.435794,4233.33323,4221.538358,4218.461435,4209.743487,4211.281948,4230.256307,4237.435794,4227.692204,4202.051179,4245.128101,4231.794768,4228.717845
4235.897332,4235.384512,4236.922973,4226.666563,4209.743487,4205.128102,4215.897333,4232.820409,4241.538358,4234.871691,4230.769127,4248.205024,4247.179383,4238.974255
4232.307589,4233.84605,4232.820409,4223.07682,4185.128103,4209.230666,4219.999897,4231.281948,4236.922973,4236.922973,4228.717845,4237.435794,4247.179383,4238.461435
4223.07682,4221.025538,4227.692204,4219.487076,4192.82041,4215.897333,4217.948615,4230.769127,4232.307589,4227.179384,4205.640923,4232.820409,4234.358871,4228.205025
4222.563999,4226.153743,4228.205025,4223.58964,4217.948615,4217.435794,4216.410153,4229.743486,4232.820409,4213.846051,4200.512718,4233.33323,4230.769127,4222.051179
4226.666563,4232.307589,4229.743486,4230.256307,4222.051179,4213.33323,4216.410153,4230.256307,4232.820409,4213.846051,4202.051179,4231.794768,4232.307589,4221.538358
4232.307589,4229.230666,4229.230666,4228.717845,4217.435794,4215.897333,4217.948615,4229.230666,4234.358871,4219.999897,4204.102461,4231.794768,4231.794768,4228.205025
4233.84605,4230.256307,4231.281948,4220.512717,4221.025538,4218.974256,4218.461435,4230.769127,4236.922973,4229.743486,4210.769128,4232.820409,4235.897332,4233.33323
4228.717845,4229.230666,4231.281948,4217.948615,4222.051179,4206.666564,4214.871692,4230.256307,4234.358871,4236.410153,4206.153743,4231.281948,4237.948614,4226.666563
4225.640922,4224.615281,4229.743486,4215.384512,4208.717846,4197.435795,4213.846051,4227.692204,4230.769127,4225.640922,4196.410154,4231.281948,4232.307589,4223.07682
4231.281948,4227.692204,4231.794768,4216.410153,4200.512718,4210.769128,4215.897333,4227.692204,4232.820409,4214.358871,4200.512718,4236.922973,4235.897332,4231.281948
4238.461435,4235.384512,4233.33323,4235.897332,4214.871692,4229.230666,4217.435794,4232.820409,4240.512717,4222.051179,4206.666564,4237.948614,4244.615281,4236.922973
4232.820409,4235.384512,4227.692204,4242.563999,4235.897332,4227.179384,4219.999897,4234.358871,4239.999896,4234.358871,4203.07682,4234.358871,4240.512717,4233.33323
4221.025538,4229.230666,4225.128102,4218.461435,4230.769127,4214.358871,4217.435794,4223.58964,4233.84605,4231.281948,4197.435795,4232.307589,4231.281948,4227.692204
4220.512717,4228.205025,4224.615281,4210.769128,4219.999897,4206.666564,4206.153743,4213.846051,4231.794768,4220.512717,4197.435795,4226.666563,4231.794768,4221.025538
4224.102461,4235.384512,4221.025538,4229.230666,4225.128102,4205.128102,4201.025538,4216.922974,4233.33323,4216.410153,4196.410154,4219.999897,4233.84605,4217.435794
4219.487076,4233.33323,4218.974256,4230.256307,4219.999897,4205.640923,4204.615282,4222.051179,4233.84605,4219.487076,4187.692205,4217.435794,4229.230666,4218.461435
4213.846051,4220.512717,4215.897333,4215.897333,4212.307589,4202.564,4203.07682,4217.948615,4230.256307,4214.871692,4179.487077,4218.461435,4222.051179,4214.358871
4210.769128,4221.538358,4210.256307,4214.358871,4216.410153,4202.051179,4199.999897,4214.358871,4228.205025,4204.615282,4177.435795,4217.435794,4219.487076,4210.769128
4216.922974,4234.358871,4215.384512,4223.58964,4214.871692,4205.640923,4206.153743,4218.974256,4230.256307,4209.743487,4179.487077,4221.025538,4227.179384,4215.384512
4227.179384,4234.358871,4226.153743,4224.615281,4212.82041,4202.051179,4210.256307,4219.487076,4231.794768,4215.384512,4187.179385,4228.205025,4234.358871,4220.512717
4223.58964,4226.153743,4222.051179,4215.384512,4224.102461,4197.435795,4204.102461,4215.384512,4230.769127,4207.692205,4187.179385,4222.563999,4230.256307,4215.384512
4218.461435,4230.256307,4217.435794,4216.410153,4236.410153,4209.743487,4207.692205,4217.948615,4233.84605,4211.794769,4183.076821,4219.999897,4226.666563,4214.871692
4229.230666,4236.410153,4230.769127,4230.256307,4230.256307,4216.922974,4217.948615,4226.666563,4233.84605,4230.256307,4194.871692,4230.769127,4234.358871,4226.666563
4233.33323,4224.102461,4233.84605,4226.153743,4216.922974,4207.692205,4214.358871,4222.051179,4230.256307,4230.256307,4197.948615,4234.358871,4236.922973,4225.128102
4226.666563,4214.358871,4220.512717,4212.307589,4220.512717,4208.717846,4209.230666,4214.358871,4230.769127,4211.281948,4178.461436,4228.717845,4227.179384,4214.871692
4229.230666,4227.692204,4222.563999,4226.666563,4225.640922,4215.897333,4213.33323,4226.153743,4233.84605,4214.871692,4184.102462,4230.256307,4229.230666,4221.538358
4234.871691,4235.384512,4231.281948,4234.358871,4217.435794,4200.512718,4207.692205,4234.358871,4233.84605,4231.794768,4203.589641,4233.84605,4237.948614,4227.179384
4231.794768,4222.051179,4223.07682,4213.846051,4218.974256,4189.743487,4198.974256,4220.512717,4227.179384,4221.538358,4195.897333,4226.666563,4230.256307,4219.999897
4225.128102,4216.410153,4211.281948,4208.717846,4233.84605,4203.07682,4203.589641,4213.33323,4220.512717,4201.025538,4181.025539,4219.999897,4217.435794,4210.769128
4216.922974,4218.461435,4208.205025,4218.461435,4234.358871,4205.640923,4202.564,4216.922974,4224.102461,4208.717846,4179.487077,4212.82041,4215.897333,4202.051179
4212.82041,4215.897333,4211.794769,4219.487076,4229.230666,4200.512718,4199.487077,4214.871692,4231.281948,4219.999897,4180.512718,4209.743487,4219.487076,4205.128102
4222.051179,4223.58964,4217.948615,4224.615281,4237.948614,4203.589641,4208.717846,4215.897333,4233.84605,4212.307589,4177.948616,4216.922974,4222.051179,4218.461435
4228.205025,4232.307589,4220.512717,4228.205025,4244.10246,4208.717846,4217.948615,4228.205025,4235.384512,4218.974256,4187.692205,4226.153743,4231.281948,4218.974256
4225.128102,4225.640922,4218.974256,4220.512717,4232.307589,4211.281948,4217.435794,4232.307589,4234.871691,4234.871691,4201.025538,4230.769127,4235.897332,4213.846051
4217.435794,4214.871692,4217.435794,4214.358871,4216.410153,4207.692205,4211.281948,4225.640922,4232.307589,4225.640922,4182.564,4226.153743,4219.999897,4212.307589
4221.025538,4211.794769,4219.999897,4222.051179,4222.051179,4198.974256,4209.743487,4219.487076,4231.794768,4209.743487,4169.230667,4228.205025,4212.82041,4210.769128
4230.256307,4217.948615,4225.128102,4231.281948,4239.487076,4198.974256,4215.384512,4218.461435,4231.794768,4215.384512,4192.30759,4234.871691,4228.717845,4214.871692
4228.717845,4223.58964,4222.563999,4227.179384,4237.948614,4205.128102,4217.435794,4220.512717,4230.256307,4218.974256,4198.974256,4227.692204,4230.256307,4218.974256
4223.07682,4218.974256,4220.512717,4215.897333,4229.743486,4203.07682,4213.33323,4218.461435,4228.205025,4207.179384,4178.974257,4218.461435,4215.897333,4214.871692
4222.563999,4212.307589,4223.58964,4211.281948,4233.33323,4196.922974,4212.82041,4213.846051,4226.153743,4205.640923,4179.487077,4226.153743,4215.897333,4209.230666
4223.58964,4221.025538,4220.512717,4214.358871,4236.922973,4197.948615,4217.435794,4215.897333,4228.717845,4215.384512,4191.794769,4232.820409,4223.07682,4208.717846
4221.025538,4228.205025,4214.358871,4221.025538,4223.07682,4203.07682,4217.435794,4218.461435,4232.307589,4215.384512,4187.179385,4223.58964,4218.461435,4210.769128
4223.58964,4223.07682,4217.948615,4231.794768,4209.743487,4207.179384,4216.410153,4214.358871,4228.205025,4208.717846,4185.640923,4221.538358,4219.487076,4213.33323
4232.307589,4225.640922,4228.717845,4233.33323,4226.153743,4203.07682,4216.922974,4216.922974,4229.230666,4213.33323,4193.333231,4236.410153,4229.743486,4217.948615
4235.384512,4233.33323,4233.84605,4226.666563,4250.256306,4196.922974,4217.435794,4227.692204,4234.871691,4225.640922,4201.025538,4245.128101,4235.897332,4225.128102
4233.84605,4232.307589,4229.743486,4228.717845,4248.717845,4199.487077,4216.922974,4223.58964,4230.769127,4230.256307,4204.615282,4237.435794,4235.384512,4227.692204
4231.794768,4228.205025,4223.58964,4229.743486,4238.461435,4208.717846,4215.384512,4213.846051,4226.666563,4226.153743,4205.640923,4236.410153,4234.871691,4226.666563
4230.769127,4231.794768,4230.769127,4226.666563,4238.461435,4209.230666,4219.487076,4225.640922,4232.820409,4227.692204,4208.205025,4244.615281,4236.922973,4225.640922
4220.512717,4224.615281,4233.33323,4218.461435,4232.307589,4200.512718,4223.07682,4235.384512,4235.384512,4228.205025,4201.538359,4238.461435,4233.33323,4217.435794
4212.307589,4204.615282,4221.025538,4209.230666,4221.538358,4201.025538,4220.512717,4223.58964,4232.307589,4221.538358,4198.974256,4225.640922,4229.743486,4210.256307
4215.897333,4201.025538,4223.58964,4214.358871,4223.07682,4208.205025,4223.58964,4221.025538,4232.307589,4218.974256,4206.666564,4233.33323,4233.33323,4215.897333
4218.461435,4210.256307,4231.281948,4231.281948,4234.358871,4208.717846,4227.179384,4233.33323,4234.871691,4222.051179,4209.230666,4243.076819,4236.410153,4221.025538
4216.410153,4207.692205,4222.563999,4237.435794,4246.666563,4207.179384,4219.999897,4231.281948,4233.84605,4224.102461,4202.051179,4234.871691,4232.307589,4215.897333
4217.435794,4199.487077,4221.025538,4223.07682,4248.717845,4212.82041,4219.999897,4226.153743,4230.769127,4224.615281,4187.692205,4230.769127,4226.666563,4210.256307
4218.974256,4200.512718,4230.769127,4214.871692,4243.58964,4217.435794,4235.384512,4232.307589,4230.769127,4224.615281,4189.743487,4237.948614,4224.102461,4214.871692
4215.897333,4202.051179,4225.128102,4221.025538,4241.025537,4207.692205,4232.307589,4230.256307,4230.769127,4220.512717,4208.717846,4236.410153,4226.153743,4219.999897
4213.846051,4197.948615,4212.82041,4218.461435,4230.769127,4196.922974,4214.871692,4214.358871,4227.692204,4214.871692,4208.205025,4226.153743,4227.179384,4213.33323
4215.897333,4199.999897,4214.871692,4215.897333,4212.82041,4201.025538,4214.358871,4211.794769,4228.205025,4211.794769,4195.384513,4225.640922,4224.615281,4210.256307
4217.435794,4201.538359,4219.999897,4220.512717,4214.358871,4202.051179,4220.512717,4223.07682,4232.820409,4211.281948,4194.358872,4231.794768,4219.999897,4214.871692
4215.384512,4197.435795,4221.025538,4213.33323,4244.10246,4196.922974,4218.461435,4224.102461,4230.769127,4215.897333,4194.358872,4228.205025,4216.922974,4208.717846
4214.358871,4194.871692,4219.487076,4201.025538,4256.922973,4206.153743,4216.922974,4215.384512,4227.692204,4216.410153,4189.743487,4220.512717,4215.384512,4198.974256
4215.384512,4198.974256,4216.922974,4213.33323,4236.410153,4216.922974,4217.948615,4216.922974,4230.256307,4215.897333,4193.333231,4222.051179,4215.384512,4204.615282
4217.435794,4203.07682,4218.974256,4224.615281,4234.358871,4208.717846,4217.435794,4222.563999,4231.281948,4214.871692,4197.435795,4229.743486,4220.512717,4214.871692
4218.461435,4201.025538,4218.974256,4215.384512,4248.205024,4204.102461,4220.512717,4220.512717,4229.230666,4214.358871,4194.871692,4231.794768,4225.640922,4218.461435
4212.307589,4199.487077,4214.871692,4212.82041,4227.692204,4208.205025,4223.07682,4218.461435,4231.281948,4215.897333,4194.871692,4226.666563,4221.538358,4212.307589
4205.128102,4197.948615,4212.82041,4213.846051,4207.179384,4198.461436,4218.461435,4219.487076,4230.256307,4214.871692,4191.794769,4217.948615,4215.384512,4201.538359
4210.769128,4195.897333,4215.897333,4210.769128,4233.33323,4190.256308,4216.922974,4218.974256,4227.692204,4212.307589,4190.769128,4219.999897,4219.999897,4205.128102
4220.512717,4196.922974,4219.487076,4211.281948,4254.871691,4201.538359,4225.640922,4218.974256,4230.769127,4208.205025,4197.435795,4231.281948,4224.615281,4217.948615
4217.948615,4198.974256,4218.974256,4212.307589,4242.051178,4204.615282,4229.743486,4219.999897,4233.33323,4214.358871,4200.512718,4230.256307,4221.025538,4217.948615
4212.82041,4202.564,4218.974256,4214.358871,4237.435794,4193.846051,4225.640922,4220.512717,4228.205025,4221.025538,4197.435795,4224.615281,4220.512717,4212.307589
4214.358871,4204.102461,4220.512717,4216.922974,4247.692204,4203.07682,4229.743486,4225.128102,4230.256307,4216.922974,4200.512718,4231.794768,4227.692204,4214.871692
4216.922974,4203.589641,4222.563999,4215.384512,4251.281947,4216.922974,4235.897332,4233.33323,4236.410153,4222.563999,4210.256307,4236.922973,4231.794768,4219.487076
4218.974256,4208.717846,4224.615281,4213.33323,4235.897332,4208.205025,4225.640922,4230.256307,4230.256307,4231.794768,4207.179384,4226.666563,4227.179384,4217.435794
4214.358871,4214.358871,4223.07682,4214.871692,4215.897333,4193.846051,4213.846051,4216.922974,4222.051179,4222.563999,4195.897333,4217.948615,4223.07682,4213.846051
4207.179384,4208.205025,4216.410153,4218.974256,4228.717845,4197.948615,4221.538358,4214.358871,4228.205025,4212.82041,4195.897333,4223.58964,4227.179384,4213.33323
4210.769128,4206.666564,4218.461435,4220.512717,4253.333229,4208.205025,4232.820409,4225.640922,4235.897332,4226.666563,4208.205025,4232.307589,4232.307589,4216.410153
4212.82041,4210.256307,4224.102461,4216.922974,4248.717845,4207.179384,4231.281948,4224.615281,4233.33323,4229.743486,4208.205025,4227.692204,4227.179384,4215.384512
4205.640923,4205.640923,4222.051179,4221.025538,4242.563999,4203.07682,4228.717845,4216.410153,4230.769127,4215.384512,4196.922974,4222.051179,4221.025538,4213.33323
4208.205025,4202.564,4221.538358,4230.256307,4244.615281,4203.07682,4232.820409,4223.58964,4235.897332,4215.897333,4207.179384,4230.256307,4229.743486,4216.922974
4214.871692,4202.564,4228.205025,4224.102461,4230.256307,4199.999897,4234.871691,4237.435794,4235.897332,4222.563999,4218.974256,4238.461435,4237.435794,4222.563999
4211.794769,4199.999897,4227.692204,4212.82041,4226.153743,4196.410154,4231.794768,4232.307589,4232.820409,4221.025538,4204.102461,4233.84605,4232.307589,4219.999897
4208.717846,4208.717846,4222.563999,4220.512717,4248.205024,4199.999897,4229.743486,4219.999897,4234.871691,4221.025538,4195.897333,4228.205025,4227.179384,4213.846051
4211.281948,4218.461435,4223.07682,4229.230666,4257.948614,4204.615282,4229.743486,4219.487076,4236.410153,4229.230666,4212.307589,4229.230666,4233.84605,4222.051179
4214.358871,4216.410153,4224.615281,4223.58964,4249.743486,4202.564,4230.256307,4223.07682,4234.871691,4233.84605,4222.051179,4232.307589,4238.974255,4233.84605
4215.897333,4212.82041,4224.615281,4216.922974,4241.025537,4202.564,4228.717845,4219.487076,4232.307589,4223.58964,4216.922974,4233.33323,4234.871691,4225.640922
4212.307589,4208.717846,4223.07682,4221.025538,4242.563999,4204.615282,4224.615281,4216.922974,4232.820409,4215.384512,4208.205025,4228.717845,4230.769127,4213.846051
4202.051179,4198.974256,4218.461435,4222.563999,4229.743486,4195.897333,4219.999897,4219.999897,4227.179384,4216.922974,4201.025538,4222.051179,4228.717845,4215.897333
4198.461436,4195.384513,4211.281948,4206.666564,4201.025538,4184.102462,4216.922974,4215.384512,4218.974256,4211.281948,4197.948615,4218.461435,4222.051179,4212.82041
4201.538359,4201.025538,4212.82041,4197.948615,4208.205025,4187.179385,4220.512717,4211.794769,4221.538358,4202.564,4199.999897,4218.974256,4217.435794,4206.666564
4205.640923,4204.102461,4222.563999,4213.33323,4242.051178,4197.435795,4229.230666,4223.58964,4232.307589,4214.358871,4212.307589,4225.128102,4226.666563,4214.358871
4206.153743,4201.538359,4221.025538,4224.615281,4245.640922,4199.487077,4234.871691,4233.33323,4237.435794,4226.153743,4218.461435,4231.794768,4234.871691,4218.974256
4202.051179,4196.922974,4214.358871,4217.435794,4224.615281,4198.974256,4233.33323,4229.230666,4231.794768,4213.846051,4207.179384,4232.307589,4228.205025,4213.33323
4202.564,4201.025538,4216.410153,4213.846051,4228.205025,4202.051179,4229.743486,4221.025538,4228.205025,4204.615282,4203.07682,4228.205025,4223.58964,4214.358871
4205.640923,4206.666564,4218.461435,4221.025538,4235.897332,4202.564,4229.743486,4218.461435,4229.743486,4216.410153,4212.82041,4228.205025,4228.717845,4221.025538
4202.564,4202.564,4213.846051,4218.461435,4219.487076,4203.589641,4231.281948,4219.487076,4229.743486,4224.615281,4209.230666,4229.743486,4232.820409,4219.487076
4199.999897,4199.999897,4214.871692,4205.640923,4217.435794,4203.07682,4233.33323,4226.153743,4233.33323,4216.410153,4203.589641,4230.769127,4232.820409,4215.384512
4204.615282,4202.051179,4218.974256,4199.999897,4237.948614,4197.435795,4232.307589,4232.307589,4241.025537,4207.692205,4208.205025,4226.666563,4227.179384,4215.384512
4203.589641,4199.487077,4216.410153,4213.33323,4244.615281,4199.487077,4231.281948,4230.256307,4238.974255,4215.384512,4207.179384,4218.461435,4220.512717,4214.871692
4196.410154,4199.487077,4211.794769,4224.102461,4231.794768,4203.589641,4233.84605,4227.692204,4231.794768,4225.128102,4204.615282,4217.435794,4219.999897,4209.743487
4197.435795,4197.435795,4212.307589,4209.743487,4231.281948,4193.333231,4233.33323,4229.230666,4228.205025,4214.358871,4204.615282,4220.512717,4220.512717,4207.692205
4200.512718,4188.717846,4216.922974,4194.871692,4232.820409,4188.205026,4226.666563,4223.58964,4222.563999,4203.07682,4199.487077,4222.051179,4216.410153,4211.794769
4199.999897,4189.743487,4217.948615,4204.102461,4212.307589,4195.897333,4223.58964,4213.846051,4222.563999,4211.281948,4204.102461,4224.102461,4219.999897,4214.871692
4208.205025,4201.538359,4218.461435,4221.538358,4209.743487,4198.974256,4231.281948,4218.974256,4234.358871,4221.025538,4223.07682,4231.281948,4230.769127,4216.410153
4221.538358,4201.025538,4222.563999,4225.128102,4232.307589,4194.871692,4233.84605,4227.179384,4231.794768,4218.461435,4219.999897,4236.410153,4230.256307,4221.025538
4214.871692,4189.230667,4217.948615,4212.307589,4238.461435,4189.230667,4221.025538,4220.512717,4220.512717,4206.666564,4192.82041,4227.692204,4218.461435,4214.871692
4202.564,4191.281949,4208.717846,4209.230666,4230.256307,4190.256308,4212.82041,4213.846051,4224.102461,4194.871692,4186.666564,4218.974256,4212.307589,4203.589641
4206.666564,4195.384513,4212.82041,4214.358871,4229.230666,4200.512718,4222.563999,4217.948615,4228.717845,4201.025538,4205.128102,4225.128102,4217.948615,4204.615282
4214.871692,4192.30759,4221.025538,4204.615282,4229.743486,4199.487077,4229.230666,4219.487076,4222.563999,4215.897333,4211.794769,4233.84605,4222.051179,4211.794769
4216.922974,4196.410154,4218.461435,4201.538359,4231.794768,4189.743487,4223.07682,4215.897333,4220.512717,4218.461435,4203.07682,4228.717845,4217.948615,4214.871692
4214.871692,4201.025538,4214.871692,4218.461435,4227.179384,4188.717846,4216.922974,4216.410153,4225.128102,4213.846051,4202.051179,4220.512717,4214.871692,4212.307589
4210.256307,4197.435795,4215.897333,4225.640922,4215.897333,4191.281949,4216.922974,4217.948615,4228.205025,4211.794769,4204.615282,4214.871692,4216.410153,4203.07682
4212.307589,4197.948615,4216.410153,4213.846051,4225.128102,4194.871692,4221.025538,4217.948615,4228.717845,4209.743487,4198.461436,4214.871692,4216.410153,4199.999897
4216.410153,4195.384513,4216.410153,4206.153743,4247.692204,4199.487077,4221.025538,4218.974256,4230.256307,4213.846051,4199.487077,4222.563999,4217.435794,4207.692205
4215.897333,4189.743487,4216.410153,4208.717846,4241.538358,4195.897333,4217.435794,4218.974256,4229.743486,4219.487076,4210.256307,4225.640922,4223.07682,4212.307589
4212.82041,4193.333231,4216.922974,4211.794769,4221.538358,4193.333231,4221.538358,4217.948615,4226.153743,4217.948615,4215.897333,4222.563999,4223.58964,4207.179384
4210.769128,4192.82041,4217.948615,4207.692205,4226.666563,4197.435795,4230.769127,4218.461435,4224.615281,4214.358871,4209.743487,4219.999897,4217.435794,4203.07682
4210.256307,4191.281949,4218.461435,4204.615282,4231.281948,4197.435795,4232.820409,4222.051179,4229.743486,4216.410153,4201.538359,4223.07682,4214.871692,4205.640923
4216.410153,4195.897333,4218.461435,4211.794769,4225.128102,4200.512718,4231.794768,4229.230666,4231.281948,4216.410153,4208.717846,4230.256307,4217.948615,4214.871692
4218.461435,4192.82041,4216.922974,4209.743487,4229.743486,4208.205025,4235.897332,4233.33323,4227.692204,4212.82041,4218.461435,4235.384512,4218.974256,4218.974256
4209.743487,4185.128103,4217.435794,4199.999897,4241.025537,4198.461436,4233.33323,4225.640922,4225.640922,4216.922974,4209.230666,4233.33323,4217.948615,4210.256307
4206.666564,4182.564,4217.948615,4201.025538,4234.871691,4184.615282,4220.512717,4216.410153,4221.538358,4216.410153,4197.948615,4221.025538,4212.82041,4201.025538
4207.692205,4183.076821,4211.281948,4202.564,4218.461435,4189.743487,4213.846051,4213.33323,4217.435794,4210.256307,4206.153743,4212.307589,4210.256307,4201.538359
4208.205025,4186.153744,4207.179384,4201.025538,4228.717845,4203.589641,4225.640922,4216.922974,4224.102461,4221.538358,4217.948615,4217.948615,4219.487076,4205.640923
4204.102461,4189.743487,4209.743487,4206.666564,4241.025537,4204.615282,4237.948614,4228.205025,4232.307589,4230.256307,4213.33323,4224.615281,4221.538358,4203.07682
4206.666564,4189.230667,4214.871692,4205.128102,4227.179384,4200.512718,4234.358871,4229.743486,4232.307589,4216.922974,4207.179384,4219.999897,4213.33323,4199.487077
4219.487076,4198.461436,4222.051179,4199.487077,4225.128102,4202.051179,4230.769127,4217.435794,4229.230666,4210.769128,4217.435794,4220.512717,4219.999897,4209.230666
4226.666563,4206.666564,4224.102461,4210.769128,4247.692204,4201.025538,4232.820409,4213.846051,4228.205025,4217.948615,4228.717845,4231.794768,4232.307589,4221.538358
4219.487076,4202.564,4218.974256,4219.999897,4254.871691,4201.538359,4230.769127,4220.512717,4233.33323,4217.435794,4222.563999,4233.33323,4226.153743,4217.948615
4208.205025,4202.564,4214.871692,4210.256307,4229.743486,4202.051179,4227.692204,4216.922974,4230.256307,4217.948615,4214.871692,4220.512717,4216.410153,4204.102461
4206.666564,4201.025538,4212.82041,4207.179384,4211.281948,4198.974256,4229.230666,4212.307589,4219.999897,4217.435794,4211.794769,4214.358871,4214.871692,4201.538359
4213.846051,4198.461436,4210.256307,4217.435794,4206.666564,4198.974256,4230.769127,4214.871692,4221.538358,4210.769128,4212.82041,4227.692204,4219.999897,4213.33323
4219.999897,4205.640923,4214.358871,4219.999897,4184.615282,4197.948615,4229.743486,4215.897333,4230.256307,4215.384512,4224.102461,4234.358871,4228.717845,4222.051179
4213.846051,4208.717846,4218.461435,4217.948615,4166.666565,4197.435795,4230.769127,4218.461435,4231.794768,4223.07682,4227.692204,4222.563999,4227.692204,4214.871692
4202.051179,4198.461436,4212.307589,4210.769128,4177.948616,4202.051179,4230.256307,4218.974256,4229.743486,4218.461435,4211.794769,4217.435794,4213.846051,4199.999897
4206.666564,4197.948615,4213.33323,4205.640923,4194.871692,4206.153743,4232.307589,4220.512717,4229.743486,4213.846051,4210.769128,4229.230666,4212.307589,4205.128102
4219.487076,4214.358871,4219.487076,4215.897333,4195.897333,4205.640923,4236.922973,4225.128102,4231.281948,4218.461435,4230.769127,4235.897332,4228.717845,4225.128102
4219.487076,4219.487076,4217.435794,4222.051179,4187.179385,4208.205025,4235.384512,4223.58964,4231.794768,4223.07682,4237.435794,4233.84605,4236.410153,4227.692204
4212.307589,4212.307589,4216.410153,4209.743487,4179.487077,4214.358871,4235.897332,4216.922974,4228.205025,4229.743486,4234.871691,4231.281948,4230.769127,4214.358871
4219.487076,4215.897333,4227.179384,4211.281948,4190.256308,4216.410153,4245.128101,4219.487076,4226.666563,4235.897332,4234.871691,4232.820409,4230.256307,4213.33323
4233.33323,4223.07682,4235.897332,4227.692204,4198.461436,4213.846051,4249.743486,4226.666563,4231.281948,4228.205025,4230.769127,4241.538358,4235.384512,4224.102461
4234.871691,4220.512717,4233.33323,4233.33323,4180.512718,4216.922974,4246.153742,4229.230666,4236.410153,4226.153743,4230.769127,4246.153742,4237.435794,4231.794768
4225.640922,4215.384512,4230.256307,4228.717845,4180.512718,4222.051179,4248.717845,4227.179384,4231.794768,4230.256307,4236.410153,4241.025537,4237.435794,4232.307589
4214.358871,4215.897333,4224.102461,4217.948615,4207.692205,4215.897333,4244.615281,4221.025538,4224.615281,4223.07682,4237.948614,4237.948614,4236.922973,4223.58964
4215.897333,4221.538358,4224.102461,4207.692205,4205.640923,4207.179384,4232.820409,4214.871692,4222.563999,4219.999897,4231.281948,4235.384512,4231.281948,4215.384512
4226.153743,4224.102461,4230.769127,4216.922974,4186.666564,4206.666564,4231.794768,4216.410153,4224.615281,4234.871691,4230.769127,4230.769127,4232.307589,4221.538358
4221.538358,4217.435794,4223.07682,4225.128102,4192.82041,4206.153743,4233.84605,4215.897333,4222.051179,4235.384512,4232.820409,4232.820409,4235.897332,4226.666563
4208.717846,4210.769128,4208.205025,4207.692205,4189.743487,4201.538359,4232.307589,4212.307589,4221.538358,4219.487076,4226.153743,4231.281948,4230.256307,4217.948615
4212.307589,4215.384512,4214.871692,4204.102461,4171.79477,4204.102461,4237.435794,4212.82041,4224.102461,4217.435794,4215.897333,4227.179384,4222.563999,4211.281948
4220.512717,4219.999897,4227.692204,4227.692204,4183.076821,4212.307589,4244.10246,4217.435794,4222.051179,4217.948615,4220.512717,4231.281948,4219.487076,4214.358871
4212.82041,4215.897333,4219.999897,4227.692204,4205.128102,4216.410153,4242.563999,4220.512717,4223.07682,4208.205025,4228.717845,4230.256307,4221.538358,4213.33323
4208.205025,4211.794769,4211.281948,4207.179384,4197.435795,4210.769128,4241.025537,4219.999897,4227.692204,4206.153743,4219.487076,4221.538358,4223.07682,4210.256307
4216.922974,4214.358871,4216.922974,4208.205025,4183.589641,4208.205025,4243.58964,4217.948615,4224.615281,4222.051179,4217.948615,4224.102461,4224.615281,4215.384512
4219.487076,4218.974256,4224.615281,4218.974256,4196.410154,4214.871692,4246.153742,4217.948615,4217.435794,4235.384512,4235.384512,4238.974255,4229.230666,4220.512717
4211.281948,4219.487076,4224.102461,4217.948615,4206.666564,4217.948615,4247.179383,4218.974256,4219.999897,4231.794768,4236.922973,4247.692204,4231.794768,4218.974256
4211.794769,4217.435794,4222.051179,4212.82041,4191.281949,4214.871692,4247.692204,4224.102461,4229.743486,4221.025538,4224.615281,4245.640922,4228.205025,4216.410153
4224.102461,4220.512717,4230.256307,4165.640924,4187.179385,4214.871692,4247.692204,4231.794768,4232.820409,4222.051179,4231.281948,4246.153742,4228.205025,4227.179384
4227.179384,4223.07682,4234.871691,4062.564003,4205.640923,4217.948615,4244.615281,4229.743486,4229.230666,4230.256307,4241.538358,4250.256306,4234.358871,4233.33323
4216.922974,4219.487076,4224.615281,4169.230667,4212.82041,4212.307589,4239.999896,4219.487076,4223.58964,4225.128102,4235.384512,4248.717845,4232.307589,4219.999897
4212.307589,4213.846051,4214.871692,4193.846051,4202.564,4204.615282,4239.487076,4216.922974,4223.07682,4216.410153,4232.820409,4246.666563,4226.153743,4214.871692
4216.410153,4215.897333,4221.025538,3933.333237,4199.487077,4208.717846,4236.410153,4220.512717,4230.256307,4223.58964,4234.871691,4246.666563,4230.769127,4227.692204
4211.794769,4222.051179,4220.512717,4800.512703,4207.179384,4213.846051,4233.84605,4217.435794,4232.307589,4231.281948,4229.230666,4241.538358,4232.307589,4228.205025
4194.871692,4210.256307,4203.589641,6815.897269,4199.487077,4201.538359,4231.281948,4211.281948,4224.615281,4223.58964,4228.205025,4231.281948,4223.58964,4211.794769
4189.743487,4197.435795,4199.999897,7772.820323,4178.461436,4192.30759,4229.743486,4210.256307,4221.025538,4214.358871,4230.769127,4229.743486,4221.025538,4207.179384
4207.179384,4215.897333,4214.871692,7455.384433,4185.640923,4208.717846,4237.435794,4217.435794,4222.563999,4216.922974,4233.84605,4235.384512,4230.256307,4219.487076
4221.025538,4235.897332,4221.538358,7436.410075,4220.512717,4223.58964,4249.743486,4224.102461,4227.179384,4229.743486,4239.999896,4237.948614,4237.435794,4228.717845
4215.384512,4226.153743,4217.435794,7638.461352,4229.230666,4218.461435,4248.717845,4222.563999,4229.230666,4231.794768,4241.538358,4234.358871,4233.33323,4223.07682
4212.307589,4215.384512,4213.33323,7487.179304,4210.769128,4211.794769,4235.897332,4218.461435,4220.512717,4215.897333,4231.281948,4231.281948,4223.07682,4213.846051
4216.410153,4222.051179,4213.846051,7406.153665,4218.461435,4213.33323,4231.794768,4214.358871,4213.33323,4217.435794,4224.615281,4230.256307,4220.512717,4211.281948
4220.512717,4227.179384,4224.102461,7409.743409,4225.640922,4216.410153,4241.025537,4216.922974,4220.512717,4233.33323,4228.205025,4235.384512,4227.692204,4218.461435
4222.563999,4225.640922,4229.230666,7375.897256,4204.102461,4219.487076,4250.769127,4225.128102,4230.769127,4231.281948,4231.794768,4242.051178,4232.820409,4227.179384
4223.58964,4226.153743,4218.974256,7367.692128,4205.640923,4217.948615,4248.205024,4225.640922,4230.256307,4222.563999,4234.358871,4238.974255,4230.769127,4226.666563
4224.615281,4228.205025,4217.435794,7333.845975,4229.743486,4214.358871,4237.435794,4217.435794,4223.07682,4225.640922,4233.84605,4232.820409,4226.666563,4218.461435
4227.692204,4229.230666,4226.153743,7306.153667,4230.256307,4215.384512,4235.384512,4214.871692,4215.384512,4221.538358,4231.794768,4234.871691,4223.58964,4214.871692
4229.230666,4230.769127,4230.769127,7280.512642,4222.563999,4216.410153,4237.435794,4217.948615,4217.948615,4212.82041,4236.922973,4236.410153,4227.179384,4217.948615
4231.794768,4233.84605,4230.256307,7249.743412,4230.256307,4214.871692,4236.922973,4218.461435,4219.999897,4218.974256,4239.487076,4233.33323,4232.820409,4216.410153
4234.871691,4233.84605,4224.102461,7218.461362,4230.769127,4215.897333,4235.384512,4214.358871,4216.410153,4227.179384,4232.307589,4229.743486,4229.743486,4213.846051
4227.179384,4231.281948,4213.846051,7188.204952,4216.922974,4217.435794,4235.897332,4213.33323,4221.025538,4221.538358,4228.205025,4226.153743,4227.179384,4211.281948
4224.102461,4231.281948,4216.410153,7131.281877,4210.769128,4216.410153,4242.051178,4216.922974,4230.769127,4214.871692,4231.794768,4227.692204,4227.692204,4206.666564
4232.307589,4231.794768,4225.128102,7066.153673,4219.999897,4216.922974,4246.666563,4217.948615,4230.769127,4220.512717,4230.769127,4227.692204,4221.025538,4205.128102
4238.461435,4229.743486,4223.58964,7042.56393,4232.820409,4219.487076,4244.10246,4213.846051,4222.051179,4217.435794,4227.179384,4224.615281,4218.974256,4208.717846
4237.948614,4226.153743,4221.538358,7025.128033,4237.435794,4219.487076,4243.58964,4213.33323,4219.487076,4217.435794,4232.307589,4229.743486,4231.794768,4212.307589
4235.897332,4226.666563,4219.999897,6972.820342,4229.230666,4213.846051,4247.692204,4215.384512,4224.102461,4227.692204,4233.84605,4232.820409,4233.33323,4210.256307
4237.948614,4231.794768,4216.922974,6927.692138,4222.051179,4215.384512,4245.640922,4213.846051,4219.999897,4221.538358,4227.179384,4225.128102,4219.487076,4206.153743
4247.692204,4233.33323,4221.025538,6902.051113,4226.666563,4228.205025,4242.563999,4215.384512,4217.948615,4214.871692,4231.794768,4223.07682,4221.025538,4208.717846
4259.487075,4235.897332,4232.307589,6861.538294,4228.717845,4228.717845,4248.205024,4221.538358,4227.179384,4229.743486,4247.692204,4233.84605,4232.820409,4218.974256
4255.897332,4239.999896,4233.33323,6812.820346,4212.82041,4213.846051,4243.076819,4216.922974,4224.615281,4228.205025,4251.794768,4236.922973,4228.205025,4218.974256
4243.076819,4232.307589,4218.974256,6763.589578,4209.230666,4210.769128,4232.307589,4207.692205,4211.281948,4208.205025,4241.025537,4227.692204,4218.461435,4204.102461
4243.58964,4225.128102,4215.897333,6717.435733,4230.769127,4221.538358,4237.435794,4212.307589,4219.487076,4217.435794,4239.487076,4227.179384,4224.102461,4204.102461
4255.384511,4234.358871,4225.128102,6684.102401,4238.974255,4221.025538,4248.717845,4221.025538,4231.794768,4231.281948,4252.820409,4233.84605,4232.307589,4217.435794
4258.974255,4240.512717,4224.615281,6647.692145,4228.717845,4215.897333,4247.692204,4217.435794,4222.051179,4220.512717,4254.871691,4229.743486,4227.179384,4211.794769
4254.871691,4234.358871,4217.948615,6593.333172,4230.769127,4221.538358,4243.58964,4213.846051,4216.922974,4212.307589,4234.358871,4223.58964,4215.897333,4196.922974
4254.871691,4232.307589,4218.974256,6528.204969,4238.974255,4229.230666,4244.615281,4215.384512,4226.153743,4215.384512,4229.743486,4227.179384,4215.384512,4205.640923
4257.435793,4230.769127,4226.153743,6471.281893,4227.692204,4225.128102,4244.10246,4215.897333,4229.743486,4223.07682,4250.769127,4234.871691,4226.153743,4218.461435
4262.563998,4231.794768,4233.84605,6428.717792,4215.897333,4217.948615,4244.10246,4218.461435,4228.717845,4229.230666,4258.461434,4240.512717,4230.256307,4216.410153
4264.61528,4241.025537,4233.84605,6373.845998,4234.871691,4219.999897,4246.666563,4220.512717,4231.794768,4231.281948,4246.153742,4236.410153,4225.640922,4213.33323
4259.487075,4243.58964,4228.205025,6308.717794,4258.461434,4229.743486,4249.743486,4218.461435,4228.205025,4231.794768,4245.128101,4227.179384,4224.102461,4214.358871
4259.999896,4235.384512,4231.281948,6261.538308,4246.153742,4234.358871,4253.84605,4218.461435,4218.974256,4230.256307,4253.84605,4236.922973,4231.281948,4218.461435
4267.692203,4231.281948,4237.948614,6216.922925,4227.692204,4226.153743,4250.256306,4217.948615,4217.435794,4218.974256,4253.84605,4250.769127,4229.230666,4221.025538
4266.666562,4238.974255,4231.281948,6152.820362,4243.58964,4223.07682,4245.640922,4215.897333,4222.051179,4213.846051,4245.128101,4237.948614,4218.461435,4215.384512
4258.461434,4247.179383,4226.666563,6100.512671,4253.84605,4234.358871,4249.743486,4223.58964,4229.743486,4230.256307,4244.10246,4225.128102,4221.538358,4209.743487
4254.35887,4239.999896,4230.256307,6057.94857,4232.307589,4239.999896,4253.333229,4234.358871,4235.897332,4236.922973,4256.922973,4236.410153,4230.256307,4214.358871
4256.410152,4226.153743,4231.794768,5998.974212,4225.640922,4228.205025,4250.256306,4231.794768,4231.281948,4227.179384,4265.128101,4244.615281,4232.307589,4222.051179
4265.128101,4235.384512,4231.794768,5949.230624,4247.692204,4223.58964,4246.666563,4227.179384,4218.974256,4224.615281,4255.384511,4239.487076,4231.281948,4224.615281
4271.281947,4251.281947,4227.179384,5909.743445,4252.307588,4233.33323,4248.205024,4228.717845,4215.384512,4219.487076,4244.10246,4229.743486,4225.640922,4215.897333
4259.487075,4242.051178,4217.435794,5848.204985,4236.922973,4233.33323,4249.743486,4228.205025,4226.666563,4210.769128,4242.563999,4221.025538,4216.410153,4201.538359
4247.692204,4229.743486,4213.33323,5790.256269,4239.999896,4229.743486,4249.743486,4223.07682,4232.307589,4222.051179,4245.128101,4223.58964,4214.358871,4203.589641
4255.384511,4232.820409,4217.435794,5753.846013,4239.999896,4231.281948,4245.640922,4222.051179,4222.051179,4230.256307,4244.615281,4233.33323,4219.487076,4217.435794
4265.640921,4239.487076,4224.615281,5710.769091,4220.512717,4233.33323,4246.153742,4226.666563,4217.435794,4218.461435,4246.153742,4236.410153,4224.102461,4212.307589
4265.640921,4242.563999,4229.230666,5663.589605,4222.563999,4241.025537,4257.435793,4234.358871,4228.717845,4223.07682,4247.692204,4232.820409,4220.512717,4196.922974
4262.051178,4244.10246,4223.58964,5623.589606,4243.58964,4247.179383,4257.435793,4230.256307,4228.717845,4226.153743,4244.615281,4231.794768,4212.307589,4195.384513
4262.563998,4243.58964,4215.897333,5574.871659,4248.205024,4241.025537,4247.692204,4223.07682,4215.897333,4215.384512,4244.10246,4234.871691,4222.563999,4203.07682
4262.051178,4239.999896,4221.025538,5519.487045,4235.384512,4240.512717,4251.281947,4229.743486,4220.512717,4224.615281,4247.179383,4232.307589,4234.871691,4203.07682
4259.999896,4239.999896,4226.666563,5476.922943,4231.794768,4249.230665,4264.61528,4238.461435,4235.384512,4233.33323,4248.205024,4229.230666,4225.128102,4195.384513
4269.743485,4249.743486,4228.205025,5441.025508,4235.897332,4249.743486,4264.61528,4235.384512,4233.33323,4220.512717,4251.281947,4238.974255,4219.999897,4193.333231
4283.589639,4258.974255,4234.358871,5397.435765,4223.58964,4246.153742,4253.333229,4230.256307,4225.128102,4227.179384,4256.410152,4247.179383,4232.307589,4200.512718
4279.487075,4254.871691,4236.922973,5352.307561,4209.743487,4247.179383,4249.743486,4228.717845,4227.179384,4237.948614,4253.333229,4239.487076,4235.897332,4203.589641
4262.051178,4244.615281,4233.84605,5310.769101,4224.102461,4246.666563,4252.307588,4232.307589,4231.794768,4220.512717,4253.333229,4236.410153,4231.794768,4199.999897
4259.487075,4236.922973,4230.256307,5261.025512,4241.538358,4244.615281,4249.230665,4235.384512,4227.179384,4214.871692,4259.999896,4245.128101,4232.307589,4197.435795
4269.230665,4239.487076,4229.743486,5206.153719,4235.384512,4243.58964,4247.179383,4232.820409,4221.025538,4234.358871,4255.384511,4245.640922,4229.743486,4199.487077
4275.897331,4250.769127,4233.84605,5167.692181,4230.769127,4245.640922,4255.897332,4232.307589,4218.974256,4239.487076,4244.10246,4242.051178,4225.128102,4200.512718
4272.820408,4247.179383,4231.281948,5126.153721,4225.128102,4247.179383,4254.35887,4232.307589,4216.410153,4224.615281,4242.051178,4237.948614,4223.58964,4198.974256
4263.076819,4233.33323,4219.999897,5065.640902,4213.33323,4247.179383,4247.179383,4228.205025,4220.512717,4213.33323,4247.692204,4232.307589,4226.153743,4197.435795
4261.538357,4240.512717,4223.07682,5021.538339,4224.615281,4251.281947,4254.871691,4231.794768,4229.743486,4218.461435,4253.333229,4238.461435,4230.769127,4199.487077
4267.692203,4251.281947,4233.33323,4992.820391,4241.025537,4249.743486,4256.410152,4233.33323,4226.153743,4225.640922,4252.307588,4247.692204,4229.230666,4202.051179
4273.846049,4248.717845,4233.33323,4946.666546,4235.897332,4245.128101,4248.205024,4221.538358,4215.384512,4224.102461,4247.179383,4244.615281,4226.153743,4203.07682
4274.87169,4243.076819,4231.794768,4895.384496,4230.256307,4246.666563,4247.692204,4219.999897,4214.358871,4226.153743,4248.205024,4242.563999,4229.743486,4204.615282
4266.666562,4236.922973,4231.281948,4854.358856,4236.410153,4247.179383,4251.281947,4231.281948,4218.974256,4227.692204,4252.820409,4245.128101,4232.820409,4204.102461
4257.948614,4236.410153,4227.692204,4816.922959,4238.461435,4249.230665,4256.410152,4234.871691,4224.102461,4224.102461,4250.769127,4244.615281,4231.281948,4202.051179
4265.128101,4247.179383,4231.281948,4784.615268,4225.640922,4256.922973,4262.051178,4231.281948,4230.256307,4227.692204,4247.692204,4246.153742,4232.820409,4203.07682
4276.922972,4255.897332,4237.435794,4753.333217,4222.563999,4256.922973,4254.871691,4233.84605,4231.281948,4237.435794,4252.820409,4247.179383,4233.84605,4203.07682
4270.256306,4244.615281,4232.820409,4709.230654,4236.922973,4247.692204,4247.179383,4239.487076,4224.102461,4233.33323,4251.794768,4236.922973,4229.230666,4199.999897
4261.025537,4236.922973,4225.640922,4667.692194,4246.153742,4249.230665,4251.794768,4239.999896,4221.538358,4223.07682,4249.743486,4233.84605,4227.179384,4199.487077
4262.563998,4236.410153,4226.666563,4634.871682,4239.999896,4253.84605,4252.820409,4234.358871,4223.07682,4218.461435,4256.410152,4244.10246,4230.769127,4202.564
4260.512716,4233.33323,4227.692204,4594.358862,4231.794768,4244.615281,4244.615281,4229.230666,4222.563999,4216.410153,4255.384511,4244.615281,4229.230666,4200.512718
4263.589639,4236.922973,4231.794768,4561.025529,4230.256307,4240.512717,4246.153742,4232.307589,4221.025538,4222.563999,4254.35887,4244.615281,4230.256307,4207.179384
4276.410152,4248.717845,4242.563999,4542.051171,4228.717845,4249.230665,4254.35887,4234.358871,4221.538358,4236.922973,4265.128101,4255.897332,4242.563999,4223.07682
4276.410152,4251.281947,4243.58964,4510.2563,4226.666563,4249.230665,4252.820409,4232.307589,4225.640922,4242.051178,4265.128101,4254.871691,4247.692204,4221.538358
4269.230665,4238.974255,4236.410153,4467.179378,4233.33323,4244.10246,4251.794768,4236.922973,4230.256307,4244.10246,4259.999896,4245.128101,4243.076819,4210.256307
4269.743485,4238.974255,4235.384512,4431.794763,4248.717845,4253.333229,4262.051178,4246.153742,4232.307589,4248.717845,4271.794767,4250.769127,4248.205024,4216.922974
4267.179383,4243.58964,4235.384512,4404.102456,4247.692204,4259.999896,4266.666562,4248.205024,4228.205025,4241.538358,4272.307588,4255.384511,4251.281947,4221.538358
4262.051178,4237.948614,4229.230666,4377.948611,4233.33323,4249.230665,4259.999896,4244.10246,4222.051179,4228.205025,4249.743486,4244.615281,4238.461435,4206.153743
4262.051178,4237.948614,4228.717845,4355.897329,4236.922973,4247.179383,4258.974255,4244.10246,4217.948615,4231.794768,4244.10246,4239.487076,4228.205025,4195.897333
4263.076819,4247.179383,4232.820409,4330.256304,4239.487076,4256.922973,4262.051178,4243.076819,4217.435794,4235.384512,4252.307588,4244.615281,4230.769127,4198.461436
4266.666562,4252.307588,4232.307589,4298.461433,4228.205025,4262.051178,4258.974255,4240.512717,4225.128102,4228.717845,4253.333229,4246.666563,4237.435794,4205.640923
4271.281947,4244.615281,4228.717845,4262.051178,4230.256307,4261.025537,4257.948614,4244.615281,4229.743486,4232.307589,4262.051178,4248.205024,4243.58964,4215.384512
4267.692203,4241.538358,4225.128102,4231.794768,4249.230665,4257.435793,4256.922973,4247.692204,4227.692204,4246.666563,4277.435793,4252.307588,4251.281947,4218.974256
4261.538357,4245.640922,4228.717845,4217.435794,4254.871691,4251.794768,4255.384511,4245.640922,4229.230666,4249.743486,4272.307588,4251.281947,4249.743486,4213.33323
4261.538357,4246.666563,4233.84605,4198.974256,4239.999896,4248.205024,4256.922973,4244.615281,4230.769127,4238.461435,4253.333229,4246.666563,4233.84605,4207.692205
4269.743485,4246.666563,4234.358871,4179.487077,4243.58964,4252.820409,4262.051178,4245.640922,4228.717845,4233.84605,4255.897332,4250.769127,4234.358871,4213.846051
4271.794767,4247.692204,4233.84605,4165.128103,4255.384511,4261.025537,4265.128101,4245.128101,4229.743486,4236.410153,4266.153742,4254.35887,4247.692204,4220.512717
4262.051178,4245.128101,4231.281948,4138.461437,4237.948614,4260.512716,4264.10246,4245.640922,4234.358871,4237.435794,4258.461434,4249.743486,4244.10246,4217.435794
4259.487075,4243.58964,4228.717845,4110.76913,4225.640922,4250.769127,4259.487075,4242.051178,4228.205025,4235.897332,4250.769127,4246.666563,4236.410153,4213.846051
4266.153742,4248.717845,4230.769127,4095.897336,4245.640922,4249.743486,4252.820409,4234.871691,4218.974256,4235.897332,4258.461434,4250.769127,4239.487076,4217.435794
4261.538357,4240.512717,4225.640922,4063.076824,4252.820409,4249.230665,4249.230665,4233.33323,4218.461435,4233.84605,4258.974255,4250.256306,4235.897332,4211.794769
4245.128101,4224.615281,4213.846051,4012.820415,4232.307589,4237.948614,4246.666563,4232.820409,4216.410153,4224.615281,4245.640922,4237.435794,4225.128102,4195.897333
4247.692204,4233.84605,4220.512717,3999.999902,4231.794768,4236.922973,4245.640922,4228.717845,4213.33323,4228.717845,4245.128101,4237.435794,4227.692204,4201.025538
4265.640921,4250.769127,4236.410153,4002.051184,4254.871691,4247.692204,4248.717845,4230.769127,4226.153743,4244.10246,4261.538357,4255.384511,4240.512717,4223.58964
4267.179383,4245.128101,4234.358871,3977.948621,4248.717845,4249.230665,4250.256306,4236.922973,4232.820409,4243.58964,4266.153742,4257.948614,4244.615281,4224.615281
4254.35887,4229.743486,4226.666563,3979.999903,4219.487076,4245.640922,4250.256306,4232.820409,4221.025538,4228.205025,4252.820409,4242.051178,4236.410153,4209.743487
4252.307588,4228.717845,4231.281948,3965.128108,4224.102461,4244.615281,4248.205024,4227.692204,4216.922974,4223.58964,4242.563999,4238.974255,4226.153743,4209.743487
4261.025537,4242.051178,4235.384512,3895.38452,4254.871691,4246.666563,4250.256306,4237.435794,4224.615281,4230.256307,4252.820409,4253.333229,4231.794768,4219.999897
4261.538357,4249.230665,4234.358871,3933.846058,4261.025537,4248.717845,4255.897332,4244.615281,4226.153743,4235.897332,4266.666562,4256.922973,4243.58964,4222.051179
4253.84605,4237.435794,4228.205025,3784.102472,4246.666563,4249.230665,4254.35887,4234.358871,4222.563999,4245.128101,4263.076819,4247.692204,4244.10246,4216.410153
4254.871691,4229.743486,4220.512717,3130.256334,4243.58964,4247.179383,4247.692204,4228.205025,4219.999897,4242.051178,4247.179383,4239.487076,4231.794768,4211.794769
4264.10246,4239.487076,4223.58964,2583.07686,4246.666563,4241.025537,4242.563999,4229.230666,4216.410153,4228.717845,4244.10246,4243.076819,4227.179384,4215.897333
4261.025537,4243.58964,4223.58964,2576.410193,4237.948614,4237.435794,4242.051178,4227.692204,4214.871692,4228.205025,4251.281947,4245.640922,4234.871691,4219.999897
4248.717845,4234.358871,4214.358871,2630.256346,4229.230666,4246.666563,4247.692204,4228.717845,4219.999897,4232.820409,4250.256306,4234.871691,4234.358871,4205.640923
4254.35887,4230.256307,4220.512717,2529.743528,4239.999896,4253.333229,4251.281947,4231.281948,4221.538358,4227.692204,4245.640922,4229.230666,4229.230666,4195.897333
4267.179383,4231.794768,4233.33323,2529.743528,4258.974255,4244.615281,4246.666563,4228.205025,4216.410153,4224.102461,4246.666563,4240.512717,4233.84605,4210.769128
4263.076819,4233.84605,4225.640922,2570.769168,4255.384511,4243.58964,4247.179383,4229.230666,4222.051179,4234.358871,4253.333229,4248.205024,4239.999896,4221.538358
4249.230665,4235.897332,4213.33323,2551.794809,4245.640922,4246.666563,4248.205024,4234.358871,4232.820409,4242.563999,4252.307588,4237.948614,4237.435794,4207.692205
4244.10246,4235.384512,4211.794769,2545.640963,4246.153742,4235.897332,4239.487076,4231.281948,4225.128102,4235.384512,4240.512717,4226.666563,4227.179384,4193.333231
4252.307588,4232.307589,4221.538358,2545.128143,4234.871691,4229.743486,4237.948614,4227.179384,4217.435794,4227.179384,4238.461435,4232.307589,4225.128102,4204.102461
4259.487075,4232.820409,4231.281948,2557.948655,4224.102461,4234.358871,4245.640922,4233.33323,4221.538358,4232.307589,4252.307588,4244.10246,4233.84605,4218.974256
4258.461434,4234.871691,4224.615281,2561.538399,4237.435794,4233.84605,4245.640922,4233.33323,4219.999897,4235.384512,4251.281947,4244.615281,4233.33323,4212.82041
4242.051178,4225.128102,4210.256307,2547.692245,4247.692204,4232.820409,4235.384512,4217.948615,4212.307589,4221.025538,4225.128102,4225.640922,4215.897333,4194.358872
4230.769127,4216.410153,4210.256307,2554.871732,4242.051178,4233.84605,4231.794768,4213.846051,4212.82041,4211.794769,4216.410153,4214.358871,4209.743487,4190.256308
4241.538358,4230.256307,4220.512717,2572.82045,4239.487076,4231.281948,4241.538358,4229.230666,4218.461435,4225.640922,4239.487076,4232.307589,4226.153743,4207.692205
4252.820409,4247.692204,4227.179384,2576.410193,4243.58964,4236.922973,4249.743486,4236.410153,4219.999897,4237.948614,4257.435793,4253.333229,4237.435794,4228.205025
4255.384511,4245.640922,4229.743486,2583.58968,4250.769127,4247.179383,4248.717845,4229.743486,4218.461435,4233.84605,4253.84605,4252.307588,4233.33323,4229.230666
4257.435793,4241.025537,4232.820409,2604.1025,4244.615281,4247.692204,4248.205024,4232.307589,4222.563999,4229.743486,4249.230665,4247.179383,4230.769127,4223.58964
4255.384511,4245.128101,4235.384512,2612.307628,4230.256307,4242.563999,4251.281947,4241.538358,4230.256307,4231.281948,4254.35887,4251.281947,4234.871691,4228.717845
4249.230665,4244.615281,4231.794768,2611.281987,4235.897332,4241.538358,4249.743486,4239.999896,4226.666563,4232.820409,4256.922973,4251.794768,4235.897332,4229.230666
4248.205024,4236.922973,4222.563999,2618.461474,4251.281947,4238.974255,4244.615281,4232.820409,4217.435794,4233.84605,4249.230665,4244.615281,4229.230666,4217.948615
4246.153742,4233.33323,4221.538358,2628.205064,4246.153742,4236.410153,4239.999896,4228.717845,4214.871692,4232.820409,4238.461435,4239.999896,4222.051179,4212.307589
4246.666563,4239.999896,4228.205025,2646.153781,4242.051178,4239.999896,4243.076819,4231.281948,4217.435794,4231.794768,4244.10246,4245.640922,4229.230666,4218.974256
4246.153742,4237.948614,4227.179384,2654.358909,4244.10246,4239.487076,4248.205024,4231.794768,4216.922974,4231.794768,4254.35887,4250.256306,4234.871691,4222.563999
4234.871691,4227.692204,4222.051179,2642.051217,4227.692204,4232.307589,4241.025537,4228.717845,4212.82041,4227.179384,4244.10246,4238.461435,4222.051179,4213.846051
4238.974255,4237.948614,4229.743486,2658.461473,4227.179384,4228.717845,4235.384512,4228.205025,4212.82041,4222.051179,4239.487076,4234.871691,4218.974256,4208.205025
4255.897332,4253.333229,4240.512717,2698.974293,4249.743486,4233.33323,4243.076819,4231.794768,4220.512717,4228.717845,4256.410152,4250.769127,4233.84605,4225.640922
4252.307588,4249.743486,4234.358871,2707.692241,4255.384511,4234.871691,4244.10246,4232.820409,4224.615281,4236.410153,4261.538357,4256.922973,4238.974255,4237.435794
4240.512717,4239.999896,4226.153743,2696.923011,4244.10246,4230.256307,4237.948614,4229.230666,4217.948615,4228.717845,4243.076819,4245.128101,4227.179384,4221.025538
4245.128101,4244.10246,4232.820409,2713.333267,4240.512717,4231.794768,4243.076819,4229.230666,4216.922974,4224.102461,4239.999896,4242.563999,4224.615281,4214.871692
4249.230665,4247.179383,4234.871691,2735.897369,4246.666563,4243.076819,4250.769127,4231.281948,4221.538358,4232.307589,4253.333229,4248.717845,4235.384512,4228.717845
4237.435794,4236.410153,4224.615281,2728.717882,4239.487076,4248.717845,4249.743486,4231.794768,4224.102461,4232.307589,4254.871691,4247.179383,4238.974255,4230.769127
4229.743486,4231.794768,4222.563999,2726.6666,4226.153743,4245.640922,4250.256306,4234.358871,4226.666563,4226.153743,4248.205024,4246.666563,4231.794768,4218.974256
4236.410153,4246.666563,4230.256307,2761.538394,4235.384512,4244.10246,4249.743486,4234.358871,4223.07682,4230.769127,4245.640922,4248.205024,4227.692204,4214.358871
4240.512717,4250.256306,4227.692204,2785.640958,4252.307588,4244.10246,4245.128101,4231.794768,4222.051179,4236.410153,4246.666563,4245.128101,4231.794768,4223.07682
4231.281948,4233.33323,4213.846051,2775.897368,4247.179383,4243.076819,4239.999896,4230.256307,4225.640922,4234.871691,4245.640922,4242.051178,4233.84605,4230.256307
4222.051179,4228.205025,4210.769128,2778.461471,4242.051178,4246.666563,4236.922973,4232.307589,4223.07682,4226.666563,4248.205024,4242.563999,4233.84605,4224.102461
4223.58964,4237.435794,4217.435794,2803.589675,4247.692204,4242.563999,4236.922973,4229.743486,4215.897333,4214.358871,4244.615281,4237.435794,4226.666563,4210.256307
4228.205025,4235.897332,4217.435794,2818.46147,4234.358871,4235.897332,4235.897332,4221.025538,4214.871692,4216.922974,4231.794768,4228.717845,4217.948615,4210.769128
4232.307589,4230.256307,4219.999897,2823.589675,4223.07682,4241.025537,4238.974255,4222.051179,4222.051179,4231.794768,4235.384512,4239.999896,4228.205025,4227.692204
4235.897332,4238.974255,4226.153743,2837.435828,4245.128101,4245.128101,4243.58964,4231.281948,4228.205025,4236.410153,4254.871691,4258.461434,4247.179383,4242.051178
4234.871691,4249.743486,4227.179384,2851.281982,4263.589639,4242.563999,4244.615281,4232.307589,4228.717845,4234.871691,4261.025537,4255.384511,4248.205024,4241.025537
4232.820409,4249.230665,4225.128102,2858.461469,4251.794768,4243.076819,4244.615281,4229.230666,4222.051179,4237.435794,4250.769127,4242.563999,4235.897332,4228.717845
4230.256307,4244.615281,4225.128102,2875.384545,4245.640922,4244.10246,4248.205024,4230.256307,4217.435794,4231.794768,4243.076819,4241.538358,4230.256307,4222.051179
4230.256307,4245.640922,4227.179384,2899.487109,4249.230665,4244.615281,4250.769127,4232.820409,4216.922974,4227.692204,4248.717845,4248.205024,4235.384512,4230.769127
4230.769127,4247.179383,4231.281948,2910.256339,4233.84605,4248.717845,4250.256306,4234.871691,4221.538358,4242.051178,4255.384511,4250.256306,4241.538358,4239.999896
4231.281948,4244.10246,4234.871691,2911.794801,4232.307589,4245.640922,4249.230665,4235.384512,4224.102461,4244.615281,4252.820409,4248.717845,4240.512717,4238.461435
4234.358871,4246.666563,4234.358871,2922.051211,4253.84605,4238.974255,4245.128101,4230.256307,4217.948615,4227.179384,4253.333229,4247.179383,4237.435794,4233.84605
4232.820409,4246.666563,4229.743486,2937.435826,4255.897332,4243.58964,4244.615281,4229.230666,4214.871692,4225.128102,4261.025537,4248.205024,4237.435794,4235.384512
4223.07682,4240.512717,4222.051179,2952.820441,4242.051178,4250.256306,4246.153742,4232.307589,4217.948615,4238.461435,4254.871691,4250.769127,4235.897332,4233.33323
4219.999897,4238.974255,4220.512717,2964.615312,4247.692204,4243.076819,4244.615281,4230.256307,4220.512717,4232.307589,4241.025537,4244.615281,4232.307589,4228.717845
4227.692204,4242.051178,4226.666563,2974.871722,4248.717845,4236.922973,4244.615281,4227.692204,4218.974256,4223.07682,4239.487076,4237.948614,4230.256307,4228.205025
4229.743486,4243.076819,4228.717845,2985.128132,4229.743486,4242.051178,4245.640922,4228.717845,4217.435794,4232.307589,4246.153742,4241.025537,4230.769127,4230.769127
4223.07682,4242.051178,4228.205025,2992.82044,4227.692204,4242.051178,4246.666563,4232.820409,4224.615281,4234.358871,4252.307588,4250.769127,4234.358871,4240.512717
4224.102461,4239.999896,4232.820409,3002.564029,4246.666563,4234.871691,4249.230665,4236.922973,4231.794768,4230.256307,4258.461434,4256.410152,4238.974255,4247.179383
4224.615281,4229.230666,4233.33323,3007.692234,4253.84605,4231.281948,4244.10246,4232.307589,4223.58964,4232.820409,4253.84605,4248.205024,4235.897332,4238.974255
4221.538358,4229.230666,4228.205025,3017.435824,4238.974255,4228.717845,4233.33323,4226.666563,4213.33323,4230.769127,4239.487076,4236.922973,4227.692204,4229.230666
4222.051179,4242.051178,4230.769127,3043.589669,4238.974255,4229.230666,4239.999896,4229.230666,4214.871692,4226.666563,4238.974255,4243.076819,4226.666563,4233.33323
4225.640922,4243.58964,4234.358871,3062.564028,4247.179383,4237.435794,4249.230665,4234.358871,4215.897333,4223.07682,4246.153742,4253.84605,4231.281948,4240.512717
4225.128102,4239.999896,4230.256307,3068.717874,4233.84605,4236.922973,4239.999896,4229.230666,4213.846051,4218.974256,4239.487076,4246.153742,4227.692204,4235.384512
4225.640922,4244.615281,4227.179384,3079.487104,4227.692204,4232.307589,4231.794768,4218.974256,4215.897333,4222.563999,4234.871691,4237.948614,4223.58964,4231.794768
4230.769127,4247.692204,4232.820409,3093.846078,4245.640922,4235.897332,4237.435794,4222.051179,4217.435794,4234.871691,4248.205024,4246.153742,4231.794768,4243.58964
4225.640922,4237.435794,4233.33323,3096.410181,4253.84605,4234.871691,4241.538358,4231.281948,4217.948615,4233.33323,4250.769127,4252.307588,4234.358871,4249.230665
4216.922974,4231.794768,4228.717845,3104.615309,4243.58964,4229.230666,4241.538358,4231.794768,4218.461435,4219.487076,4235.897332,4245.128101,4222.051179,4236.922973
4218.974256,4237.948614,4229.230666,3124.615308,4243.076819,4236.922973,4244.10246,4230.256307,4218.461435,4222.563999,4234.358871,4238.974255,4221.538358,4231.281948
4217.435794,4234.358871,4229.230666,3137.948641,4251.281947,4245.640922,4248.717845,4232.820409,4217.435794,4232.820409,4245.128101,4240.512717,4231.281948,4239.999896
4213.846051,4230.256307,4228.717845,3138.974282,4245.128101,4238.461435,4248.205024,4233.33323,4217.435794,4230.769127,4247.692204,4245.640922,4231.281948,4242.563999
4215.897333,4239.999896,4231.281948,3138.461462,4226.153743,4229.230666,4238.461435,4230.256307,4217.435794,4227.179384,4246.666563,4250.256306,4229.230666,4245.640922
4213.846051,4244.615281,4229.743486,3152.307615,4225.640922,4229.230666,4231.281948,4228.717845,4214.871692,4230.256307,4248.717845,4249.230665,4232.307589,4248.205024
4206.153743,4233.84605,4223.58964,3177.94864,4246.666563,4231.794768,4233.84605,4228.205025,4212.82041,4232.307589,4243.58964,4237.948614,4228.205025,4237.948614
4204.615282,4233.33323,4221.025538,3190.769153,4252.820409,4228.717845,4234.358871,4229.230666,4213.846051,4230.769127,4231.794768,4230.256307,4221.025538,4229.743486
4207.692205,4238.461435,4217.435794,3191.281973,4244.615281,4230.256307,4236.410153,4230.256307,4214.871692,4229.230666,4235.897332,4238.974255,4226.153743,4238.461435
4208.717846,4237.435794,4217.948615,3204.615306,4247.692204,4239.999896,4243.58964,4231.281948,4213.33323,4222.051179,4251.281947,4247.179383,4232.820409,4248.205024
4211.794769,4239.487076,4224.615281,3223.076844,4251.794768,4241.538358,4243.58964,4233.33323,4215.384512,4221.025538,4249.743486,4244.615281,4232.820409,4246.666563
4210.769128,4236.410153,4223.07682,3225.128126,4234.358871,4233.33323,4234.358871,4233.84605,4217.435794,4231.281948,4240.512717,4241.025537,4229.230666,4242.051178
4209.743487,4231.281948,4215.384512,3225.640947,4225.128102,4230.769127,4231.794768,4230.769127,4215.384512,4234.871691,4243.076819,4244.10246,4228.205025,4243.076819
4214.358871,4238.461435,4219.999897,3237.948639,4240.512717,4234.871691,4236.922973,4230.256307,4213.846051,4234.871691,4251.281947,4245.128101,4233.84605,4248.205024
4211.794769,4239.487076,4223.58964,3255.897356,4255.384511,4233.84605,4234.871691,4232.307589,4214.871692,4233.33323,4249.743486,4240.512717,4233.84605,4245.640922
4201.025538,4227.179384,4214.871692,3267.692228,4252.820409,4230.769127,4230.256307,4229.743486,4213.33323,4219.999897,4243.58964,4234.358871,4225.128102,4233.84605
4198.974256,4223.58964,4209.743487,3271.794792,4238.974255,4232.820409,4233.33323,4227.692204,4213.33323,4211.794769,4236.410153,4231.794768,4219.999897,4229.743486
4204.102461,4230.256307,4213.33323,3280.51274,4238.974255,4229.230666,4234.871691,4231.794768,4215.897333,4222.563999,4237.948614,4232.820409,4223.07682,4237.948614
4205.640923,4231.281948,4212.82041,3295.384535,4242.563999,4225.128102,4228.717845,4231.794768,4214.871692,4222.051179,4242.563999,4235.384512,4222.051179,4243.076819
4207.692205,4231.281948,4214.358871,3304.615304,4228.205025,4228.717845,4227.692204,4225.128102,4214.358871,4212.82041,4239.487076,4234.871691,4221.025538,4241.538358
4210.769128,4229.743486,4220.512717,3312.307611,4223.07682,4232.307589,4232.307589,4227.179384,4215.897333,4222.051179,4236.922973,4234.871691,4222.563999,4244.10246
4209.230666,4224.102461,4218.461435,3324.102483,4243.58964,4233.33323,4234.871691,4231.794768,4213.846051,4226.666563,4236.410153,4236.410153,4219.487076,4244.10246
4215.384512,4231.281948,4217.948615,3337.435816,4256.410152,4234.358871,4240.512717,4232.820409,4214.358871,4220.512717,4239.999896,4243.076819,4223.58964,4245.128101
4225.128102,4246.666563,4227.692204,3353.846072,4250.769127,4234.871691,4244.615281,4233.33323,4216.922974,4220.512717,4243.58964,4246.153742,4230.256307,4256.410152
4224.102461,4245.128101,4233.33323,3367.179405,4247.179383,4235.897332,4237.948614,4232.307589,4213.846051,4225.128102,4239.999896,4241.025537,4227.179384,4261.538357
4216.410153,4233.33323,4231.794768,3375.384533,4249.743486,4236.922973,4233.33323,4231.281948,4214.358871,4228.205025,4241.538358,4238.461435,4228.205025,4251.794768
4210.256307,4233.84605,4225.128102,3379.487097,4252.820409,4232.820409,4235.384512,4232.820409,4219.999897,4228.717845,4248.717845,4241.025537,4230.256307,4247.692204
4208.717846,4236.410153,4216.410153,3389.230686,4236.922973,4229.230666,4232.307589,4230.256307,4216.410153,4224.102461,4244.10246,4237.435794,4227.692204,4251.281947
4211.794769,4228.717845,4214.871692,3399.999917,4214.871692,4232.307589,4230.769127,4228.205025,4216.922974,4229.230666,4236.922973,4232.307589,4227.179384,4250.769127
4207.179384,4225.128102,4218.461435,3399.999917,4231.794768,4232.307589,4233.33323,4231.281948,4224.102461,4241.025537,4242.051178,4234.871691,4229.743486,4249.230665
4198.974256,4231.281948,4216.410153,3410.256327,4257.435793,4231.281948,4235.384512,4234.871691,4221.538358,4239.487076,4240.512717,4235.897332,4226.153743,4248.717845
4202.564,4235.384512,4213.846051,3429.230685,4242.051178,4237.948614,4237.948614,4237.435794,4218.974256,4236.410153,4236.922973,4233.84605,4226.666563,4245.640922
4211.794769,4234.871691,4219.487076,3435.384531,4227.179384,4245.640922,4239.487076,4239.487076,4229.743486,4235.897332,4244.10246,4235.384512,4232.820409,4248.205024
4216.922974,4240.512717,4230.256307,3445.640941,4243.58964,4246.666563,4239.487076,4239.999896,4231.794768,4229.743486,4252.820409,4242.563999,4234.871691,4262.563998
4214.871692,4241.538358,4228.717845,3463.589659,4238.974255,4239.487076,4237.948614,4238.461435,4219.487076,4230.769127,4252.307588,4244.615281,4234.871691,4264.61528
4210.256307,4231.794768,4216.922974,3466.666582,4210.769128,4231.794768,4232.820409,4232.307589,4213.33323,4229.743486,4244.10246,4241.025537,4228.717845,4250.769127
4211.281948,4230.769127,4222.051179,3471.281966,4215.384512,4230.769127,4229.743486,4231.281948,4216.922974,4223.07682,4243.58964,4243.58964,4222.563999,4248.717845
4212.307589,4237.948614,4233.84605,3486.153761,4239.999896,4232.307589,4232.307589,4235.897332,4219.487076,4224.615281,4248.717845,4245.640922,4226.666563,4256.922973
4201.025538,4229.230666,4222.051179,3481.538376,4236.410153,4228.205025,4232.307589,4230.256307,4213.846051,4225.128102,4237.948614,4234.358871,4223.07682,4250.256306
4195.384513,4219.487076,4213.33323,3483.076838,4222.563999,4231.281948,4230.256307,4223.58964,4208.205025,4212.307589,4229.230666,4229.743486,4215.897333,4242.051178
4205.640923,4229.743486,4223.58964,3508.717863,4229.743486,4234.358871,4231.794768,4228.717845,4213.33323,4214.358871,4238.974255,4237.948614,4222.563999,4247.692204
4209.230666,4236.922973,4224.615281,3514.871709,4228.717845,4220.512717,4229.230666,4228.717845,4217.948615,4225.128102,4237.435794,4243.076819,4225.640922,4251.794768
4200.512718,4230.769127,4217.435794,3504.102478,4209.230666,4216.922974,4226.666563,4224.102461,4214.358871,4219.999897,4230.769127,4240.512717,4214.871692,4247.179383
4199.999897,4228.717845,4225.128102,3517.948632,4208.717846,4231.281948,4232.820409,4229.743486,4213.846051,4215.384512,4243.58964,4237.435794,4218.974256,4246.666563
4205.640923,4235.897332,4231.794768,3543.589657,4232.307589,4235.897332,4238.974255,4236.410153,4218.461435,4226.666563,4251.281947,4238.461435,4232.820409,4255.897332
4203.589641,4235.384512,4224.615281,3549.230682,4241.538358,4230.256307,4235.897332,4233.33323,4218.461435,4233.84605,4244.615281,4241.025537,4231.794768,4262.051178
4202.564,4231.794768,4216.410153,3550.769144,4229.230666,4230.769127,4233.84605,4231.794768,4218.461435,4226.153743,4242.563999,4236.410153,4227.692204,4258.974255
4208.717846,4239.487076,4217.435794,3568.717861,4226.666563,4231.281948,4236.410153,4234.358871,4218.974256,4225.128102,4241.025537,4230.769127,4232.307589,4254.871691
4213.846051,4246.666563,4224.615281,3582.051194,4235.897332,4231.794768,4234.871691,4233.33323,4218.461435,4229.230666,4237.435794,4237.948614,4231.794768,4253.84605
4211.281948,4238.461435,4227.179384,3575.897348,4232.307589,4231.794768,4232.820409,4232.307589,4217.435794,4222.563999,4238.974255,4244.615281,4222.051179,4249.743486
4206.153743,4229.230666,4218.974256,3576.922989,4224.615281,4226.666563,4232.820409,4231.794768,4214.871692,4218.461435,4233.84605,4237.948614,4220.512717,4248.717845
4206.666564,4232.307589,4215.384512,3589.743502,4239.487076,4228.205025,4232.820409,4231.281948,4214.358871,4228.205025,4230.256307,4234.871691,4231.794768,4257.948614
4209.230666,4233.33323,4217.435794,3594.358886,4262.051178,4227.179384,4230.256307,4230.769127,4217.948615,4231.794768,4239.999896,4236.922973,4236.410153,4264.10246
4212.307589,4232.820409,4218.974256,3598.46145,4268.205024,4226.666563,4229.230666,4232.307589,4218.461435,4222.051179,4242.563999,4235.384512,4233.84605,4263.589639
4216.410153,4243.076819,4216.922974,3616.922988,4269.743485,4229.230666,4230.769127,4230.256307,4216.410153,4212.82041,4234.871691,4234.871691,4230.769127,4261.025537
4216.410153,4246.666563,4215.897333,3630.769142,4271.281947,4224.102461,4230.769127,4229.743486,4217.948615,4215.897333,4241.025537,4237.948614,4230.256307,4259.999896
4218.461435,4236.922973,4221.025538,3629.23068,4259.999896,4218.461435,4230.256307,4231.794768,4216.922974,4227.179384,4248.717845,4239.487076,4238.461435,4264.10246
4226.153743,4235.384512,4229.743486,3629.23068,4256.410152,4225.640922,4232.307589,4233.33323,4214.358871,4230.769127,4245.128101,4244.615281,4246.153742,4274.35887
4228.717845,4246.153742,4234.871691,3642.564013,4276.410152,4235.384512,4234.871691,4233.84605,4217.435794,4227.692204,4249.743486,4251.281947,4247.179383,4284.102459
4224.102461,4243.58964,4231.281948,3657.435808,4284.61528,4230.769127,4233.33323,4229.743486,4217.948615,4222.051179,4254.35887,4248.717845,4244.10246,4279.487075
4223.58964,4234.871691,4229.743486,3661.538372,4265.128101,4218.974256,4229.230666,4225.128102,4213.846051,4218.974256,4242.563999,4245.640922,4236.410153,4268.205024
4221.025538,4237.948614,4228.205025,3667.692218,4255.384511,4214.871692,4228.205025,4227.692204,4213.33323,4225.640922,4237.948614,4247.179383,4229.230666,4268.205024
4214.358871,4241.538358,4221.025538,3680.512731,4270.256306,4224.615281,4231.281948,4233.33323,4215.897333,4228.205025,4245.640922,4247.179383,4234.358871,4272.820408
4219.999897,4240.512717,4222.563999,3688.205038,4266.153742,4234.358871,4232.820409,4232.820409,4217.435794,4218.461435,4246.666563,4245.128101,4241.538358,4273.333229
4226.666563,4244.10246,4231.281948,3693.846064,4250.256306,4231.794768,4230.769127,4224.102461,4216.410153,4215.384512,4247.179383,4244.615281,4238.974255,4269.743485
4225.640922,4249.230665,4233.33323,3706.153756,4263.076819,4225.128102,4230.769127,4216.922974,4214.871692,4216.922974,4246.666563,4244.10246,4234.871691,4264.61528
4224.615281,4248.717845,4233.84605,3710.25632,4277.435793,4230.256307,4233.33323,4219.487076,4216.922974,4214.358871,4239.487076,4245.128101,4233.84605,4263.589639
4216.410153,4241.025537,4230.256307,3704.102474,4265.128101,4234.871691,4233.33323,4229.743486,4215.384512,4205.640923,4230.769127,4243.58964,4226.666563,4259.487075
4198.461436,4229.230666,4218.974256,3707.179397,4254.35887,4219.999897,4233.84605,4231.281948,4209.743487,4192.30759,4222.563999,4235.897332,4215.384512,4247.179383
4197.435795,4229.230666,4216.410153,3718.974268,4263.076819,4213.33323,4233.33323,4229.743486,4213.846051,4202.051179,4223.58964,4236.410153,4216.922974,4246.153742
4213.846051,4239.487076,4228.717845,3734.358883,4263.589639,4230.256307,4234.358871,4237.948614,4227.179384,4240.512717,4248.205024,4249.230665,4236.410153,4265.640921
4215.384512,4238.461435,4234.358871,3747.692216,4245.640922,4239.487076,4238.461435,4250.256306,4233.33323,4256.922973,4262.051178,4251.794768,4244.615281,4268.717844
4206.153743,4231.281948,4227.692204,3748.205037,4241.025537,4230.769127,4239.487076,4248.717845,4227.692204,4237.435794,4246.666563,4244.615281,4233.33323,4252.820409
4201.025538,4230.256307,4221.025538,3744.615293,4253.333229,4227.692204,4231.281948,4234.871691,4218.974256,4222.051179,4234.871691,4245.128101,4222.563999,4246.153742
4198.461436,4232.307589,4221.538358,3749.743498,4255.384511,4233.84605,4231.281948,4231.281948,4215.384512,4224.615281,4239.487076,4247.692204,4222.051179,4250.769127
4202.051179,4235.384512,4229.743486,3759.487088,4251.794768,4232.307589,4240.512717,4235.897332,4219.999897,4222.051179,4239.487076,4247.692204,4226.153743,4250.769127
4203.589641,4235.897332,4230.256307,3768.717857,4261.025537,4227.692204,4238.974255,4233.84605,4229.230666,4217.948615,4234.871691,4247.692204,4228.717845,4245.640922
4201.538359,4235.384512,4222.563999,3779.487087,4264.10246,4235.384512,4238.974255,4236.922973,4232.820409,4230.769127,4243.58964,4248.717845,4233.33323,4247.692204
4199.999897,4235.897332,4219.999897,3784.615292,4261.538357,4247.179383,4246.153742,4244.10246,4226.153743,4239.487076,4251.794768,4248.205024,4233.84605,4247.179383
4197.948615,4235.384512,4220.512717,3788.205036,4254.871691,4238.461435,4241.025537,4240.512717,4219.999897,4228.205025,4242.563999,4246.153742,4224.615281,4236.410153
4195.897333,4231.281948,4227.179384,3794.871702,4232.820409,4223.07682,4229.743486,4232.307589,4222.051179,4226.666563,4234.871691,4244.615281,4216.922974,4237.948614
4195.897333,4222.051179,4231.281948,3796.410164,4226.666563,4224.615281,4229.230666,4227.692204,4218.461435,4227.179384,4233.33323,4245.128101,4217.948615,4245.640922
4197.948615,4219.999897,4229.230666,3794.871702,4245.640922,4228.205025,4231.794768,4224.102461,4211.794769,4213.33323,4232.820409,4247.692204,4223.07682,4245.640922
4202.051179,4232.307589,4231.281948,3798.461446,4253.84605,4228.717845,4230.769127,4228.717845,4214.871692,4215.384512,4235.897332,4245.640922,4223.07682,4244.10246
4199.487077,4231.281948,4226.153743,3805.640933,4242.051178,4227.179384,4230.256307,4231.281948,4216.410153,4229.230666,4231.794768,4235.897332,4219.487076,4238.974255
4185.128103,4217.948615,4212.82041,3809.743497,4235.897332,4222.563999,4226.153743,4225.128102,4213.846051,4220.512717,4216.922974,4226.666563,4215.897333,4228.205025
4185.128103,4221.538358,4214.358871,3816.410163,4244.10246,4223.07682,4227.179384,4225.640922,4215.384512,4212.82041,4219.487076,4231.794768,4217.948615,4229.230666
4195.384513,4226.666563,4224.615281,3825.640932,4233.84605,4221.538358,4230.256307,4225.128102,4211.794769,4224.615281,4236.922973,4242.051178,4221.538358,4237.435794
4189.743487,4215.897333,4221.025538,3830.256317,4210.256307,4218.461435,4228.205025,4214.871692,4205.640923,4221.025538,4230.769127,4237.435794,4218.974256,4233.33323
4179.487077,4212.82041,4213.846051,3832.820419,4220.512717,4224.615281,4228.717845,4218.974256,4211.794769,4202.564,4217.435794,4228.717845,4215.897333,4229.230666
4185.640923,4226.153743,4218.974256,3844.10247,4250.769127,4234.871691,4231.794768,4231.794768,4218.974256,4204.102461,4223.07682,4233.84605,4214.358871,4231.281948
4193.846051,4232.820409,4225.640922,3858.461444,4249.230665,4232.307589,4231.281948,4229.230666,4214.358871,4220.512717,4227.692204,4238.974255,4215.897333,4233.33323
4191.794769,4227.179384,4227.179384,3864.10247,4235.384512,4229.230666,4230.256307,4223.07682,4212.307589,4224.615281,4223.58964,4237.435794,4219.487076,4234.358871
4189.230667,4222.563999,4225.128102,3862.564008,4245.128101,4231.794768,4230.769127,4228.205025,4216.922974,4226.153743,4228.205025,4234.871691,4221.025538,4233.33323
4190.769128,4222.051179,4222.563999,3861.538367,4251.794768,4230.769127,4230.769127,4230.769127,4214.871692,4231.281948,4236.410153,4237.948614,4218.974256,4233.33323
4192.30759,4225.640922,4223.58964,3870.769136,4236.410153,4229.743486,4231.281948,4230.769127,4212.82041,4225.640922,4232.307589,4239.999896,4216.922974,4233.33323
4191.281949,4230.769127,4227.179384,3888.717854,4227.179384,4230.256307,4230.769127,4233.33323,4219.487076,4218.461435,4226.153743,4238.461435,4216.410153,4232.307589
4195.384513,4235.897332,4230.769127,3907.179392,4244.615281,4234.358871,4232.820409,4234.358871,4229.230666,4222.051179,4231.794768,4240.512717,4223.58964,4233.33323
4195.897333,4232.307589,4227.692204,3909.230674,4257.435793,4235.897332,4233.84605,4234.358871,4226.153743,4227.179384,4236.922973,4243.076819,4230.769127,4233.33323
4191.281949,4226.153743,4219.487076,3897.435802,4249.230665,4233.84605,4231.794768,4234.358871,4218.461435,4229.743486,4234.871691,4242.563999,4227.179384,4231.794768
4194.871692,4230.769127,4219.999897,3900.512725,4246.153742,4234.358871,4233.84605,4234.871691,4223.58964,4233.84605,4235.384512,4245.128101,4229.230666,4235.384512
4197.948615,4229.743486,4219.999897,3912.307597,4241.538358,4234.871691,4234.358871,4234.871691,4223.58964,4232.820409,4233.33323,4240.512717,4228.205025,4235.384512
4190.769128,4218.974256,4215.897333,3909.743494,4234.358871,4231.281948,4228.205025,4232.307589,4215.897333,4231.281948,4224.615281,4229.743486,4218.974256,4228.205025
4190.769128,4222.563999,4220.512717,3913.333238,4239.487076,4231.281948,4228.205025,4232.820409,4218.461435,4239.999896,4230.256307,4234.871691,4222.051179,4230.769127
4203.07682,4235.384512,4228.205025,3931.281955,4232.307589,4235.897332,4234.358871,4235.384512,4222.563999,4237.948614,4237.435794,4246.666563,4227.692204,4236.922973
4205.128102,4232.820409,4228.205025,3930.769135,4222.051179,4235.384512,4233.33323,4234.358871,4217.948615,4224.615281,4229.743486,4244.10246,4222.563999,4234.871691
4200.512718,4226.153743,4227.692204,3926.15375,4238.974255,4230.256307,4230.256307,4234.358871,4218.461435,4225.640922,4230.769127,4242.051178,4224.102461,4234.871691
4195.384513,4228.205025,4222.051179,3933.846058,4252.820409,4226.153743,4231.281948,4233.84605,4221.538358,4231.794768,4231.794768,4238.974255,4226.153743,4234.358871
4191.281949,4229.743486,4214.871692,3942.564006,4248.717845,4236.410153,4232.820409,4228.717845,4218.461435,4231.281948,4220.512717,4233.33323,4218.461435,4228.205025
4194.358872,4223.58964,4219.487076,3951.794775,4244.10246,4246.153742,4233.84605,4232.307589,4221.025538,4231.794768,4222.563999,4240.512717,4221.025538,4229.743486
4200.512718,4213.846051,4219.487076,3951.794775,4239.487076,4238.974255,4230.769127,4235.384512,4222.051179,4227.179384,4234.358871,4245.128101,4227.692204,4234.358871
4199.999897,4218.974256,4217.435794,3947.179391,4239.999896,4231.794768,4227.692204,4231.281948,4216.410153,4217.948615,4232.820409,4239.487076,4225.640922,4234.358871
4198.461436,4231.794768,4225.128102,3960.512724,4237.948614,4234.358871,4231.794768,4236.922973,4218.461435,4228.205025,4232.820409,4241.538358,4230.256307,4237.948614
4199.999897,4225.640922,4225.128102,3974.358877,4215.384512,4232.820409,4234.358871,4242.051178,4219.487076,4236.922973,4234.871691,4246.666563,4232.307589,4241.538358
4201.538359,4218.461435,4224.615281,3964.615288,4219.999897,4228.205025,4232.307589,4234.358871,4217.948615,4230.256307,4232.307589,4246.153742,4230.769127,4242.563999
4205.128102,4230.769127,4234.358871,3962.564006,4250.769127,4234.871691,4232.307589,4233.33323,4223.07682,4232.307589,4241.025537,4248.717845,4237.948614,4249.230665
4203.589641,4234.871691,4233.33323,3979.999903,4251.281947,4243.076819,4234.871691,4245.640922,4223.58964,4239.999896,4250.769127,4251.794768,4241.538358,4251.794768
4200.512718,4222.051179,4227.692204,3986.666569,4238.461435,4239.487076,4236.410153,4248.205024,4216.922974,4234.871691,4244.10246,4252.307588,4234.358871,4245.128101
4198.974256,4216.410153,4229.743486,3984.615287,4240.512717,4232.820409,4235.384512,4235.384512,4216.410153,4231.794768,4233.84605,4248.717845,4228.205025,4241.538358
4199.487077,4221.025538,4229.230666,3990.256313,4236.410153,4231.794768,4230.769127,4231.794768,4221.025538,4236.922973,4233.84605,4247.692204,4229.743486,4242.051178
4200.512718,4221.025538,4223.07682,3991.281954,4227.692204,4227.179384,4226.666563,4234.871691,4217.948615,4229.743486,4233.33323,4248.717845,4229.743486,4238.461435
4193.333231,4216.410153,4217.435794,3982.564005,4224.615281,4221.025538,4227.179384,4235.897332,4218.461435,4222.563999,4225.640922,4242.051178,4223.58964,4230.256307
4188.717846,4213.33323,4217.435794,3989.743492,4214.358871,4229.230666,4231.794768,4237.948614,4223.58964,4233.33323,4220.512717,4234.871691,4219.487076,4226.666563
4199.487077,4219.999897,4228.205025,4009.230671,4214.871692,4236.410153,4232.307589,4239.487076,4221.538358,4242.051178,4228.205025,4241.538358,4226.153743,4237.435794
4208.717846,4228.717845,4236.410153,4015.384517,4233.33323,4230.769127,4230.769127,4236.922973,4220.512717,4236.922973,4238.974255,4253.84605,4235.897332,4247.179383
4201.538359,4225.128102,4227.179384,4008.717851,4241.025537,4230.769127,4231.281948,4234.871691,4222.563999,4235.897332,4236.410153,4246.666563,4232.820409,4241.025537
4195.384513,4215.897333,4218.974256,4003.589646,4234.871691,4234.871691,4231.281948,4236.410153,4216.922974,4236.410153,4223.07682,4234.358871,4219.999897,4228.717845
4195.384513,4213.846051,4222.563999,4007.69221,4227.692204,4231.794768,4229.743486,4235.384512,4214.871692,4225.640922,4218.461435,4234.358871,4212.82041,4225.640922
4195.897333,4216.922974,4223.07682,4017.94862,4227.692204,4227.179384,4227.692204,4235.384512,4224.102461,4222.563999,4228.717845,4241.025537,4221.025538,4232.820409
4197.948615,4218.461435,4217.948615,4019.999902,4230.769127,4229.230666,4225.640922,4235.897332,4226.153743,4231.281948,4235.384512,4242.563999,4234.358871,4237.435794
4197.948615,4217.948615,4213.846051,4017.94862,4225.640922,4234.358871,4229.230666,4235.897332,4217.948615,4227.692204,4225.128102,4234.358871,4230.256307,4229.230666
4191.794769,4213.33323,4214.871692,4025.128107,4221.538358,4233.33323,4230.256307,4234.358871,4215.897333,4219.999897,4215.897333,4226.153743,4217.435794,4218.974256
4188.205026,4208.205025,4213.846051,4033.333235,4218.461435,4228.205025,4220.512717,4230.769127,4216.410153,4221.538358,4217.435794,4231.281948,4212.82041,4225.640922
4192.82041,4211.794769,4216.410153,4032.307594,4206.666564,4227.179384,4215.897333,4231.794768,4217.948615,4227.179384,4225.128102,4241.025537,4218.461435,4234.871691
4196.410154,4217.948615,4218.974256,4034.871696,4210.256307,4231.281948,4225.640922,4234.871691,4219.487076,4233.84605,4229.230666,4238.974255,4226.666563,4231.794768
4194.358872,4215.384512,4215.384512,4044.102465,4233.33323,4232.820409,4230.769127,4236.922973,4220.512717,4236.410153,4226.153743,4235.897332,4228.717845,4229.230666
4198.974256,4212.82041,4219.487076,4047.179388,4238.461435,4230.769127,4228.717845,4241.025537,4221.538358,4234.358871,4228.717845,4246.666563,4227.179384,4236.922973
4208.717846,4217.435794,4230.769127,4044.615286,4232.307589,4234.358871,4232.820409,4243.076819,4221.538358,4239.999896,4239.999896,4254.871691,4232.307589,4245.128101
4203.589641,4219.487076,4227.692204,4047.179388,4235.897332,4235.384512,4231.281948,4237.948614,4217.948615,4242.051178,4239.487076,4247.179383,4231.794768,4238.461435
4192.82041,4213.33323,4216.410153,4057.435798,4231.794768,4228.717845,4223.58964,4234.358871,4217.948615,4227.692204,4225.128102,4239.999896,4218.461435,4228.205025
4199.487077,4211.794769,4221.538358,4062.051183,4221.538358,4227.692204,4227.692204,4233.33323,4218.461435,4222.051179,4226.666563,4245.128101,4217.948615,4235.384512
4213.33323,4224.102461,4233.33323,4064.615285,4226.666563,4233.84605,4234.871691,4234.358871,4216.922974,4238.461435,4243.58964,4253.333229,4233.33323,4251.794768
4214.871692,4232.307589,4233.33323,4076.410157,4238.461435,4237.435794,4232.307589,4243.58964,4220.512717,4248.205024,4243.58964,4253.333229,4238.974255,4249.743486
4203.07682,4223.58964,4224.102461,4078.974259,4227.179384,4230.256307,4228.717845,4243.58964,4218.461435,4232.307589,4222.051179,4242.563999,4226.153743,4232.820409
4192.82041,4213.846051,4214.871692,4067.692208,4206.666564,4225.640922,4228.205025,4233.33323,4213.846051,4214.871692,4211.794769,4235.384512,4213.33323,4224.102461
4198.461436,4222.051179,4217.435794,4070.769131,4215.897333,4233.84605,4229.230666,4235.384512,4221.025538,4221.538358,4225.640922,4243.58964,4221.538358,4232.307589
4207.692205,4229.230666,4225.640922,4084.102464,4238.974255,4238.461435,4231.281948,4242.051178,4228.717845,4235.897332,4236.410153,4249.230665,4235.384512,4240.512717
4197.948615,4218.974256,4218.974256,4081.025541,4236.410153,4233.33323,4227.692204,4234.871691,4221.025538,4230.256307,4222.563999,4237.435794,4222.563999,4228.205025
4188.717846,4211.281948,4210.256307,4078.461439,4224.102461,4232.820409,4223.58964,4230.769127,4214.358871,4219.999897,4211.794769,4231.794768,4208.205025,4217.435794
4199.487077,4218.974256,4224.615281,4092.307592,4225.640922,4234.358871,4228.205025,4241.025537,4225.128102,4234.358871,4226.666563,4246.666563,4225.128102,4233.84605
4206.153743,4222.563999,4233.84605,4096.410156,4229.230666,4231.281948,4231.794768,4251.281947,4236.922973,4258.461434,4242.051178,4257.948614,4241.538358,4251.281947
4200.512718,4215.897333,4223.07682,4086.666567,4226.666563,4232.820409,4229.230666,4246.666563,4228.717845,4252.820409,4238.974255,4253.333229,4233.84605,4240.512717
4200.512718,4215.897333,4221.025538,4088.717849,4222.051179,4229.230666,4226.153743,4234.871691,4216.922974,4229.230666,4228.717845,4246.666563,4224.102461,4223.58964
4203.07682,4218.461435,4227.179384,4099.9999,4220.512717,4220.512717,4227.179384,4233.84605,4225.640922,4229.743486,4226.153743,4245.128101,4226.153743,4223.58964
4196.922974,4214.358871,4220.512717,4102.564002,4217.948615,4227.179384,4228.205025,4238.461435,4233.33323,4238.461435,4230.769127,4244.615281,4227.692204,4225.640922
4193.333231,4213.33323,4212.307589,4099.9999,4209.743487,4229.743486,4220.512717,4232.307589,4218.974256,4223.58964,4227.179384,4239.487076,4223.07682,4219.999897
4191.794769,4214.358871,4214.358871,4099.487079,4208.205025,4216.410153,4213.33323,4227.692204,4207.179384,4211.794769,4212.307589,4230.256307,4212.307589,4212.82041
4196.922974,4216.922974,4223.07682,4106.666566,4220.512717,4221.538358,4222.051179,4231.281948,4212.307589,4217.435794,4206.153743,4229.230666,4203.589641,4211.794769
4212.307589,4229.230666,4232.307589,4121.02554,4218.974256,4233.84605,4231.281948,4232.307589,4217.948615,4217.948615,4216.410153,4234.871691,4206.153743,4217.948615
4214.871692,4232.820409,4226.666563,4125.128104,4198.461436,4227.179384,4223.58964,4229.743486,4216.922974,4216.922974,4219.999897,4233.33323,4215.384512,4219.487076
4199.487077,4219.999897,4215.897333,4121.02554,4196.922974,4220.512717,4215.384512,4228.205025,4214.871692,4222.563999,4213.33323,4226.666563,4215.384512,4214.358871
4196.410154,4218.461435,4220.512717,4120.51272,4219.487076,4225.128102,4218.974256,4230.769127,4214.871692,4227.179384,4215.897333,4228.717845,4206.666564,4213.33323
4203.07682,4228.717845,4224.102461,4121.02554,4228.717845,4225.128102,4221.538358,4233.84605,4217.948615,4222.051179,4217.435794,4232.820409,4204.102461,4216.410153
4199.487077,4227.179384,4218.461435,4120.51272,4224.102461,4228.205025,4220.512717,4232.820409,4217.948615,4216.922974,4206.153743,4230.769127,4203.07682,4214.871692
4197.948615,4222.051179,4215.897333,4122.051181,4224.615281,4231.281948,4218.974256,4231.794768,4213.846051,4219.999897,4202.564,4228.717845,4204.102461,4211.794769
4199.999897,4219.999897,4216.922974,4127.179386,4221.025538,4223.07682,4218.461435,4233.84605,4215.897333,4220.512717,4213.846051,4229.230666,4212.307589,4214.358871
4199.487077,4217.948615,4217.435794,4133.846053,4216.922974,4223.07682,4224.615281,4239.999896,4225.128102,4222.051179,4219.487076,4232.307589,4217.948615,4217.435794
4197.435795,4218.974256,4217.948615,4135.384514,4226.153743,4235.384512,4230.256307,4239.999896,4223.58964,4226.153743,4214.358871,4231.794768,4213.846051,4216.922974
4194.358872,4219.999897,4215.384512,4132.307591,4223.58964,4236.410153,4230.256307,4234.358871,4215.384512,4222.051179,4211.281948,4229.230666,4205.128102,4215.384512
4190.256308,4215.897333,4211.794769,4133.846053,4204.615282,4219.999897,4228.717845,4231.281948,4215.384512,4212.82041,4214.358871,4230.769127,4202.564,4215.897333
4188.205026,4211.794769,4213.33323,4137.948617,4204.615282,4216.410153,4229.743486,4234.871691,4216.410153,4217.435794,4218.461435,4234.871691,4206.666564,4216.410153
4187.692205,4211.794769,4215.897333,4137.948617,4218.461435,4233.84605,4232.820409,4238.974255,4221.025538,4230.769127,4219.487076,4234.358871,4213.33323,4215.384512
4188.717846,4214.358871,4215.384512,4139.487078,4221.025538,4238.461435,4231.794768,4235.897332,4230.769127,4232.307589,4217.435794,4233.33323,4216.410153,4216.410153
4194.358872,4215.384512,4213.846051,4139.999899,4222.051179,4230.256307,4227.179384,4231.281948,4226.666563,4225.128102,4217.435794,4235.384512,4213.846051,4216.922974
4197.435795,4216.410153,4214.871692,4144.102463,4224.615281,4230.769127,4228.205025,4232.820409,4222.051179,4216.922974,4218.461435,4233.33323,4212.82041,4215.384512
4195.897333,4216.410153,4216.922974,4154.358873,4222.563999,4233.84605,4227.692204,4236.410153,4229.230666,4221.025538,4217.948615,4233.33323,4215.384512,4216.410153
4199.999897,4216.410153,4217.948615,4162.05118,4223.58964,4229.743486,4221.025538,4234.358871,4224.615281,4234.871691,4216.410153,4239.999896,4214.871692,4218.461435
4205.128102,4216.922974,4220.512717,4168.717847,4212.307589,4231.281948,4225.640922,4233.33323,4216.922974,4232.820409,4218.461435,4240.512717,4214.358871,4219.487076
4202.564,4216.410153,4219.487076,4168.205026,4198.974256,4232.820409,4228.717845,4233.84605,4228.717845,4220.512717,4224.615281,4233.84605,4219.487076,4218.974256
4197.948615,4213.846051,4213.846051,4156.922975,4214.871692,4228.717845,4217.948615,4230.256307,4233.84605,4222.051179,4219.487076,4230.256307,4216.410153,4215.384512
4197.435795,4214.358871,4211.794769,4157.435796,4232.307589,4227.179384,4220.512717,4229.230666,4222.563999,4225.640922,4205.640923,4229.230666,4204.102461,4212.82041
4203.07682,4217.435794,4220.512717,4169.743488,4227.692204,4229.743486,4229.743486,4229.743486,4222.051179,4221.538358,4206.666564,4231.794768,4206.666564,4216.922974
4209.230666,4218.974256,4226.153743,4173.333231,4222.051179,4232.307589,4222.051179,4229.230666,4228.717845,4227.692204,4218.974256,4237.948614,4217.435794,4220.512717
4208.205025,4218.461435,4219.999897,4169.743488,4219.487076,4230.769127,4214.358871,4228.205025,4224.615281,4235.384512,4219.999897,4236.922973,4218.974256,4216.922974
4202.051179,4217.435794,4213.846051,4170.256308,4213.33323,4227.692204,4217.435794,4223.07682,4216.410153,4224.615281,4211.794769,4228.717845,4213.846051,4213.846051
4200.512718,4213.846051,4215.384512,4166.666565,4216.922974,4226.666563,4218.461435,4220.512717,4217.435794,4211.281948,4204.102461,4227.179384,4204.102461,4213.33323
4201.025538,4212.307589,4217.435794,4167.179385,4212.82041,4223.58964,4214.358871,4223.07682,4223.58964,4211.281948,4201.538359,4230.256307,4199.487077,4213.846051
4201.538359,4216.922974,4216.922974,4179.487077,4194.871692,4224.615281,4214.871692,4225.128102,4224.102461,4214.871692,4207.179384,4232.307589,4211.794769,4216.922974
4199.999897,4212.82041,4213.846051,4181.538359,4200.512718,4227.692204,4221.538358,4228.205025,4228.205025,4215.384512,4215.897333,4231.794768,4220.512717,4217.948615
4198.461436,4203.589641,4215.384512,4175.897334,4218.974256,4223.58964,4223.07682,4234.358871,4233.84605,4218.461435,4219.487076,4232.307589,4216.922974,4215.897333
4200.512718,4208.717846,4224.102461,4181.025539,4220.512717,4215.897333,4215.897333,4229.230666,4225.128102,4225.640922,4219.999897,4238.974255,4215.897333,4218.461435
4203.07682,4217.948615,4224.615281,4187.179385,4213.846051,4221.025538,4215.384512,4219.999897,4217.435794,4233.84605,4218.461435,4239.999896,4221.538358,4222.051179
4201.538359,4217.948615,4215.897333,4184.615282,4215.897333,4229.230666,4221.538358,4224.615281,4224.102461,4232.307589,4218.461435,4233.33323,4224.615281,4219.999897
4195.897333,4216.410153,4214.358871,4184.102462,4217.948615,4226.666563,4219.487076,4228.205025,4227.692204,4224.615281,4218.461435,4232.307589,4223.58964,4215.897333
4195.384513,4214.871692,4217.948615,4180.512718,4215.384512,4219.487076,4214.871692,4224.615281,4219.999897,4219.487076,4215.897333,4234.871691,4215.384512,4214.358871
4194.358872,4212.307589,4213.33323,4176.410154,4204.102461,4218.974256,4214.358871,4224.102461,4215.384512,4221.538358,4218.461435,4230.769127,4216.410153,4215.384512
4192.30759,4212.82041,4207.179384,4179.999898,4193.333231,4226.153743,4217.435794,4229.230666,4223.07682,4223.58964,4217.948615,4227.692204,4222.563999,4215.897333
4193.333231,4214.358871,4210.769128,4185.128103,4203.589641,4226.666563,4219.487076,4233.33323,4229.743486,4219.487076,4214.871692,4229.230666,4220.512717,4210.256307
4201.025538,4214.871692,4217.435794,4188.205026,4218.461435,4223.58964,4216.922974,4231.794768,4226.153743,4221.538358,4222.563999,4233.33323,4219.999897,4212.82041
4204.102461,4219.487076,4218.461435,4191.281949,4222.563999,4228.205025,4218.461435,4229.230666,4226.153743,4234.358871,4232.307589,4241.538358,4230.256307,4226.666563
4202.051179,4220.512717,4216.410153,4189.743487,4219.999897,4234.871691,4226.153743,4231.794768,4231.281948,4234.871691,4229.230666,4242.051178,4233.84605,4228.205025
4195.897333,4213.33323,4215.384512,4189.230667,4213.846051,4232.307589,4224.615281,4234.358871,4224.615281,4224.102461,4221.025538,4229.230666,4223.58964,4215.384512
4190.256308,4207.692205,4215.384512,4189.743487,4212.307589,4227.692204,4221.025538,4229.743486,4213.33323,4221.538358,4215.384512,4228.717845,4214.871692,4212.307589
4196.922974,4211.794769,4221.025538,4186.666564,4214.871692,4233.33323,4226.666563,4228.717845,4218.461435,4222.051179,4217.948615,4242.051178,4217.948615,4225.640922
