AF3,F7,F3,FC5,T7,P7,O1,O2,P8,T8,FC6,F4,F8,AF4
4091.281951,4200.512718,4218.974256,4225.128102,4218.461435,4224.615281,4216.410153,4214.358871,4204.615282,4225.640922,4222.051179,4227.179384,4231.794768,4221.538358
4081.025541,4198.461436,4219.999897,4224.102461,4216.922974,4229.230666,4218.461435,4214.871692,4196.922974,4213.846051,4215.384512,4219.487076,4228.205025,4214.871692
4075.384516,4205.128102,4227.692204,4227.179384,4219.487076,4226.666563,4216.410153,4215.897333,4195.384513,4212.82041,4219.487076,4217.435794,4229.743486,4218.974256
4081.538362,4216.922974,4236.410153,4233.84605,4218.461435,4225.640922,4218.974256,4218.974256,4215.384512,4226.153743,4232.307589,4226.153743,4243.076819,4232.307589
4082.051182,4217.435794,4236.922973,4234.358871,4218.461435,4226.153743,4223.07682,4225.128102,4231.794768,4232.307589,4234.871691,4228.205025,4252.307588,4232.820409
4073.846054,4212.82041,4234.358871,4230.769127,4226.153743,4226.153743,4218.974256,4230.256307,4229.743486,4230.256307,4229.230666,4228.205025,4249.230665,4226.153743
4074.871695,4218.461435,4238.974255,4233.33323,4228.205025,4223.07682,4215.384512,4232.307589,4237.435794,4233.33323,4236.410153,4244.10246,4247.179383,4232.307589
4075.384516,4219.487076,4239.487076,4233.84605,4217.948615,4226.153743,4219.487076,4229.230666,4253.333229,4235.897332,4243.58964,4245.128101,4247.692204,4235.897332
4065.128106,4213.33323,4228.717845,4229.743486,4214.871692,4222.563999,4218.974256,4219.999897,4237.435794,4233.33323,4235.897332,4236.922973,4241.025537,4229.230666
4067.179388,4219.999897,4232.307589,4233.33323,4227.179384,4220.512717,4213.846051,4212.307589,4223.07682,4229.743486,4231.281948,4237.948614,4234.871691,4230.769127
4072.820413,4225.640922,4234.871691,4235.897332,4229.743486,4225.640922,4214.871692,4215.384512,4220.512717,4225.128102,4230.256307,4196.410154,4232.820409,4232.820409
4060.512721,4216.410153,4221.538358,4228.717845,4224.615281,4229.230666,4216.922974,4215.384512,4196.922974,4214.871692,4221.025538,4122.051181,4227.692204,4221.538358
4052.820414,4212.82041,4216.922974,4226.153743,4226.153743,4226.153743,4216.410153,4212.307589,4171.79477,4215.897333,4219.999897,4101.538361,4225.640922,4213.846051
4061.538362,4217.948615,4225.640922,4233.84605,4224.102461,4228.205025,4219.999897,4221.025538,4182.05118,4228.717845,4229.743486,4124.102463,4228.717845,4219.487076
4062.051183,4216.922974,4226.666563,4233.84605,4216.922974,4229.743486,4226.153743,4229.230666,4193.333231,4229.230666,4229.230666,4126.153745,4228.205025,4222.563999
4055.897337,4214.871692,4224.615281,4229.230666,4216.410153,4226.153743,4225.640922,4229.743486,4191.281949,4224.102461,4227.692204,4125.640925,4226.666563,4224.615281
4059.48708,4214.358871,4227.179384,4230.256307,4218.461435,4226.666563,4222.051179,4231.281948,4198.461436,4229.743486,4233.84605,4141.53836,4230.256307,4229.743486
4059.48708,4209.743487,4223.58964,4228.205025,4218.461435,4227.692204,4223.07682,4230.769127,4199.487077,4233.84605,4233.33323,4147.692206,4231.281948,4230.769127
4053.846055,4205.640923,4221.538358,4224.615281,4217.948615,4224.615281,4222.051179,4229.743486,4189.743487,4229.230666,4232.307589,4150.256309,4230.769127,4227.692204
4053.333234,4204.615282,4226.153743,4222.563999,4216.410153,4222.051179,4216.922974,4228.717845,4188.717846,4226.153743,4231.794768,4159.487078,4227.692204,4224.615281
4058.97426,4211.794769,4229.743486,4224.102461,4215.897333,4223.07682,4215.897333,4223.07682,4198.461436,4229.743486,4231.794768,4175.897334,4228.717845,4228.205025
4061.025542,4213.33323,4232.307589,4224.615281,4212.82041,4221.025538,4216.922974,4224.102461,4205.128102,4232.307589,4232.307589,4196.922974,4228.717845,4232.820409
4050.256311,4195.897333,4231.794768,4218.974256,4208.205025,4221.538358,4217.435794,4231.281948,4197.435795,4225.640922,4222.051179,4212.307589,4212.307589,4221.538358
4054.358875,4189.743487,4235.897332,4220.512717,4213.846051,4221.025538,4218.974256,4232.307589,4195.897333,4221.025538,4224.615281,4227.179384,4210.256307,4222.051179
4083.589644,4212.307589,4253.84605,4232.820409,4218.974256,4225.128102,4224.615281,4233.33323,4238.461435,4235.897332,4249.743486,4250.769127,4243.076819,4251.281947
4100.51272,4223.58964,4264.61528,4234.358871,4213.846051,4227.179384,4227.692204,4233.84605,4283.589639,4250.769127,4263.589639,4266.666562,4266.153742,4269.743485
4094.871695,4208.717846,4257.435793,4227.179384,4214.358871,4227.692204,4226.666563,4230.769127,4290.769126,4246.666563,4260.512716,4267.692203,4262.051178,4265.128101
4094.871695,4203.07682,4253.333229,4226.666563,4219.487076,4222.051179,4227.179384,4238.974255,4289.743485,4247.179383,4260.512716,4265.128101,4267.692203,4267.179383
4093.846054,4201.025538,4252.307588,4223.58964,4216.922974,4223.58964,4229.230666,4245.640922,4291.281946,4245.640922,4254.871691,4257.948614,4268.717844,4265.128101
4074.871695,4188.205026,4240.512717,4215.897333,4214.871692,4226.153743,4229.743486,4239.487076,4270.769126,4235.384512,4243.58964,4247.692204,4250.256306,4248.205024
4065.640926,4185.128103,4234.871691,4218.974256,4215.384512,4229.743486,4234.871691,4242.563999,4261.538357,4240.512717,4244.615281,4243.076819,4244.615281,4242.051178
4069.74349,4195.384513,4239.487076,4223.07682,4217.435794,4230.769127,4237.948614,4248.717845,4263.589639,4249.743486,4246.666563,4236.922973,4249.230665,4239.999896
4069.74349,4200.512718,4236.410153,4224.102461,4220.512717,4228.717845,4228.205025,4244.615281,4256.410152,4244.10246,4244.615281,4234.358871,4247.692204,4234.358871
4065.640926,4195.897333,4232.307589,4224.615281,4221.025538,4226.153743,4223.07682,4243.58964,4257.948614,4244.10246,4248.717845,4246.666563,4250.769127,4238.974255
4064.615285,4194.871692,4234.358871,4223.58964,4219.487076,4227.179384,4230.769127,4244.10246,4266.153742,4245.128101,4251.281947,4246.153742,4254.871691,4244.10246
4069.23067,4198.974256,4233.84605,4219.999897,4219.487076,4227.692204,4231.281948,4239.487076,4254.871691,4233.33323,4246.666563,4232.820409,4249.230665,4235.897332
4071.281952,4199.999897,4232.820409,4219.999897,4221.025538,4225.128102,4228.205025,4242.563999,4246.666563,4233.84605,4243.58964,4236.922973,4246.666563,4231.794768
4069.74349,4197.948615,4232.820409,4224.615281,4223.07682,4226.153743,4235.384512,4250.769127,4257.948614,4245.640922,4246.153742,4243.58964,4252.307588,4237.435794
4072.307593,4200.512718,4231.281948,4227.179384,4223.07682,4226.666563,4240.512717,4252.307588,4263.589639,4245.640922,4247.692204,4239.999896,4251.281947,4237.948614
4075.384516,4198.974256,4230.769127,4220.512717,4219.999897,4227.692204,4241.538358,4250.256306,4261.538357,4238.974255,4244.615281,4241.025537,4248.717845,4233.33323
4067.179388,4187.179385,4227.692204,4213.33323,4213.33323,4225.128102,4244.10246,4245.640922,4250.769127,4234.358871,4237.435794,4241.025537,4248.205024,4232.820409
4059.48708,4181.025539,4220.512717,4214.358871,4208.717846,4226.153743,4246.666563,4246.666563,4234.358871,4227.179384,4228.717845,4231.281948,4237.435794,4228.717845
4062.051183,4187.179385,4222.563999,4217.435794,4210.769128,4225.128102,4247.179383,4254.35887,4232.307589,4229.230666,4230.256307,4230.256307,4231.794768,4224.615281
4066.153747,4194.871692,4234.871691,4218.974256,4216.410153,4225.640922,4244.10246,4255.384511,4246.666563,4237.948614,4238.974255,4241.025537,4239.487076,4227.692204
4073.333234,4197.948615,4233.33323,4222.051179,4216.410153,4222.563999,4235.384512,4245.128101,4249.230665,4239.487076,4237.435794,4243.58964,4239.999896,4233.33323
4076.922977,4195.384513,4229.743486,4220.512717,4215.384512,4224.615281,4229.230666,4234.358871,4241.538358,4237.435794,4231.281948,4242.051178,4234.871691,4230.769127
4077.435798,4197.435795,4238.461435,4219.487076,4218.974256,4227.692204,4234.871691,4233.84605,4243.58964,4241.025537,4238.974255,4244.615281,4243.076819,4232.307589
4085.128105,4203.07682,4245.128101,4223.58964,4219.999897,4230.256307,4241.025537,4244.615281,4267.692203,4250.256306,4251.794768,4251.794768,4251.281947,4242.563999
4089.230669,4202.051179,4240.512717,4223.58964,4215.897333,4228.717845,4239.487076,4248.205024,4279.999895,4251.281947,4249.230665,4254.35887,4250.256306,4241.538358
4078.974259,4198.461436,4234.358871,4219.487076,4214.871692,4227.179384,4236.410153,4239.999896,4263.589639,4237.948614,4238.461435,4245.640922,4245.128101,4230.256307
4072.820413,4197.435795,4232.307589,4217.948615,4219.487076,4227.179384,4233.84605,4239.999896,4245.128101,4230.769127,4232.307589,4235.897332,4237.948614,4223.07682
4075.897336,4191.281949,4229.230666,4218.974256,4217.948615,4227.179384,4232.820409,4243.58964,4244.615281,4237.948614,4233.84605,4233.84605,4233.84605,4222.051179
4074.871695,4185.128103,4226.153743,4216.410153,4211.794769,4226.666563,4231.794768,4236.410153,4242.051178,4245.640922,4234.871691,4235.897332,4234.358871,4224.615281
4077.435798,4190.769128,4228.205025,4216.410153,4212.307589,4227.692204,4234.358871,4231.794768,4238.974255,4242.563999,4233.84605,4234.358871,4237.948614,4229.743486
4087.692208,4201.025538,4230.256307,4223.07682,4218.461435,4229.230666,4235.384512,4234.358871,4245.128101,4238.461435,4237.948614,4232.820409,4245.640922,4232.820409
4090.769131,4203.07682,4231.794768,4227.692204,4221.538358,4226.666563,4230.256307,4234.358871,4248.717845,4239.487076,4244.10246,4236.410153,4248.205024,4232.307589
4091.794772,4201.538359,4233.33323,4226.153743,4216.410153,4226.666563,4233.84605,4235.384512,4253.84605,4244.10246,4242.051178,4244.10246,4246.153742,4233.33323
4097.435797,4204.102461,4232.820409,4224.102461,4213.33323,4228.717845,4242.563999,4240.512717,4260.512716,4247.692204,4235.897332,4245.640922,4247.692204,4235.384512
4095.384515,4197.948615,4229.743486,4219.487076,4213.33323,4227.692204,4239.999896,4238.974255,4254.871691,4243.076819,4233.33323,4237.435794,4244.615281,4229.743486
4084.615285,4187.179385,4223.58964,4214.358871,4211.281948,4221.538358,4233.33323,4230.769127,4227.692204,4230.769127,4226.666563,4228.717845,4230.769127,4217.948615
4084.102464,4188.205026,4218.461435,4214.871692,4211.794769,4226.666563,4236.410153,4230.256307,4212.82041,4222.051179,4221.538358,4229.743486,4225.640922,4218.461435
4092.820413,4194.871692,4222.051179,4216.410153,4215.384512,4227.692204,4242.563999,4239.487076,4225.128102,4226.666563,4227.692204,4238.461435,4230.769127,4229.743486
4091.281951,4193.333231,4227.692204,4216.922974,4212.82041,4225.128102,4238.974255,4243.58964,4232.307589,4230.769127,4230.256307,4242.563999,4229.743486,4227.692204
4089.230669,4195.384513,4226.153743,4217.948615,4212.307589,4224.102461,4234.871691,4242.563999,4225.640922,4229.230666,4231.794768,4241.538358,4231.281948,4224.615281
4105.640925,4206.666564,4231.281948,4222.563999,4218.974256,4228.717845,4236.410153,4244.615281,4246.666563,4237.948614,4239.999896,4247.692204,4243.58964,4237.948614
4118.974258,4213.846051,4237.435794,4224.102461,4220.512717,4227.179384,4235.384512,4240.512717,4268.205024,4242.051178,4239.999896,4250.256306,4248.717845,4247.179383
4126.153745,4213.33323,4235.897332,4224.615281,4216.922974,4226.153743,4230.769127,4230.769127,4259.999896,4231.281948,4233.84605,4245.128101,4241.538358,4251.794768
4152.820411,4225.128102,4245.128101,4231.281948,4219.487076,4223.58964,4229.230666,4235.384512,4265.640921,4227.692204,4245.128101,4258.461434,4254.35887,4279.487075
4201.025538,4247.179383,4267.179383,4241.025537,4220.512717,4224.102461,4231.794768,4242.051178,4315.89733,4233.84605,4263.076819,4288.717844,4287.692203,4325.128099
4241.025537,4252.820409,4278.974254,4241.538358,4214.871692,4225.640922,4232.820409,4234.871691,4356.92297,4232.820409,4266.666562,4302.051177,4298.461433,4356.41015
4261.538357,4249.743486,4274.87169,4236.410153,4211.281948,4227.692204,4232.820409,4231.281948,4368.205021,4227.692204,4263.589639,4298.461433,4295.897331,4367.17938
4271.794767,4263.589639,4274.35887,4241.538358,4216.922974,4226.153743,4228.205025,4232.820409,4378.461431,4227.179384,4266.153742,4297.435792,4306.666561,4376.410149
4270.256306,4273.333229,4278.974254,4248.717845,4221.538358,4223.58964,4222.563999,4230.256307,4390.769123,4229.230666,4267.692203,4299.487074,4306.666561,4374.358867
4254.871691,4263.076819,4277.948613,4245.128101,4213.33323,4223.58964,4228.205025,4231.794768,4393.846046,4233.84605,4268.205024,4297.435792,4295.897331,4357.435791
4240.512717,4258.974255,4271.794767,4240.512717,4205.640923,4223.07682,4229.230666,4233.84605,4386.153739,4234.871691,4266.666562,4287.692203,4296.922972,4342.563996
4223.07682,4263.076819,4265.128101,4241.025537,4211.794769,4223.07682,4220.512717,4228.717845,4366.66656,4230.256307,4256.410152,4278.974254,4286.666562,4327.692202
4191.794769,4250.256306,4259.487075,4238.461435,4218.974256,4223.58964,4223.07682,4228.717845,4342.563996,4227.692204,4244.615281,4273.846049,4264.61528,4303.076818
4170.769129,4233.33323,4253.333229,4232.820409,4216.922974,4227.692204,4233.84605,4232.820409,4327.179381,4230.256307,4246.153742,4267.179383,4261.025537,4282.051177
4160.512719,4227.692204,4244.615281,4228.717845,4214.358871,4225.128102,4233.84605,4231.794768,4305.64092,4231.281948,4245.640922,4259.487075,4257.435793,4272.307588
4140.512719,4219.487076,4234.871691,4223.58964,4214.358871,4224.615281,4229.743486,4229.743486,4277.948613,4230.769127,4235.897332,4252.820409,4246.153742,4258.974255
4129.743489,4211.794769,4231.281948,4223.07682,4216.922974,4224.102461,4232.307589,4231.281948,4264.10246,4231.794768,4235.897332,4244.615281,4245.128101,4247.692204
4134.358873,4213.846051,4233.84605,4228.205025,4227.179384,4227.179384,4232.307589,4232.307589,4268.205024,4231.281948,4243.58964,4244.10246,4246.153742,4247.692204
4137.435796,4219.487076,4242.563999,4232.307589,4235.897332,4227.692204,4230.256307,4231.281948,4276.410152,4236.922973,4248.205024,4255.384511,4249.230665,4250.769127
4136.922976,4219.487076,4249.230665,4232.307589,4230.256307,4226.153743,4230.256307,4230.769127,4282.051177,4245.640922,4245.128101,4257.948614,4250.256306,4250.256306
4130.256309,4212.307589,4242.051178,4225.128102,4226.153743,4221.538358,4227.179384,4229.230666,4269.230665,4242.051178,4235.897332,4249.230665,4239.999896,4245.640922
4121.538361,4210.769128,4235.384512,4219.999897,4228.717845,4224.615281,4229.230666,4228.717845,4258.974255,4232.820409,4232.307589,4246.153742,4237.948614,4242.051178
4122.051181,4213.846051,4236.922973,4225.128102,4225.128102,4227.179384,4231.794768,4229.743486,4257.435793,4231.794768,4235.384512,4248.717845,4243.076819,4237.948614
4122.051181,4208.205025,4232.820409,4224.615281,4216.410153,4225.128102,4225.128102,4226.666563,4245.128101,4234.358871,4233.33323,4241.025537,4236.410153,4232.820409
4118.461438,4202.051179,4226.666563,4216.410153,4216.410153,4223.58964,4217.948615,4225.640922,4232.820409,4233.33323,4230.256307,4232.307589,4232.307589,4231.281948
4119.999899,4203.589641,4227.692204,4217.435794,4222.563999,4225.128102,4220.512717,4227.692204,4232.820409,4233.33323,4233.33323,4234.358871,4236.922973,4230.769127
4120.51272,4203.07682,4228.717845,4217.948615,4225.640922,4225.128102,4225.640922,4230.769127,4228.717845,4232.820409,4233.33323,4235.384512,4234.358871,4227.692204
4120.51272,4201.538359,4228.717845,4216.922974,4225.128102,4223.58964,4228.205025,4229.743486,4218.974256,4230.769127,4228.717845,4230.769127,4229.230666,4222.563999
4123.076822,4208.205025,4232.820409,4222.563999,4221.025538,4222.051179,4231.281948,4223.58964,4217.435794,4229.230666,4226.666563,4230.256307,4231.281948,4224.615281
4124.102463,4215.897333,4238.461435,4225.640922,4218.461435,4221.025538,4227.692204,4221.538358,4224.102461,4228.717845,4229.230666,4240.512717,4232.820409,4229.743486
4124.615284,4209.230666,4236.922973,4224.615281,4218.974256,4225.128102,4222.051179,4225.128102,4229.743486,4228.205025,4232.307589,4246.666563,4230.769127,4229.230666
4123.589643,4199.999897,4228.205025,4224.102461,4218.974256,4224.615281,4220.512717,4225.640922,4222.051179,4229.743486,4229.743486,4237.435794,4228.205025,4224.102461
4126.153745,4206.666564,4227.692204,4222.051179,4219.487076,4224.102461,4220.512717,4225.128102,4216.922974,4229.743486,4227.179384,4229.743486,4229.230666,4221.025538
4132.307591,4212.307589,4233.33323,4218.974256,4219.999897,4222.051179,4219.487076,4228.717845,4221.538358,4230.769127,4229.743486,4236.410153,4230.256307,4224.615281
4135.897335,4206.153743,4236.410153,4220.512717,4224.615281,4224.615281,4221.538358,4231.281948,4233.33323,4238.461435,4233.33323,4245.128101,4232.820409,4231.281948
4138.974258,4211.281948,4240.512717,4222.051179,4228.717845,4224.615281,4225.128102,4231.794768,4246.666563,4243.58964,4235.897332,4249.230665,4239.999896,4235.384512
4140.512719,4217.435794,4240.512717,4222.563999,4228.717845,4225.640922,4224.615281,4230.256307,4250.769127,4233.33323,4233.33323,4250.256306,4238.974255,4234.358871
4136.410155,4205.640923,4232.820409,4223.07682,4227.692204,4223.58964,4226.153743,4230.256307,4235.897332,4227.179384,4228.717845,4241.538358,4229.230666,4228.717845
4136.922976,4201.025538,4231.281948,4224.102461,4230.769127,4225.640922,4228.717845,4234.871691,4236.410153,4237.948614,4230.769127,4234.871691,4228.717845,4227.692204
4142.051181,4212.307589,4234.358871,4224.615281,4232.820409,4225.640922,4219.999897,4225.640922,4243.076819,4242.051178,4233.84605,4240.512717,4233.33323,4230.769127
4144.102463,4214.358871,4233.33323,4225.128102,4229.230666,4225.128102,4211.281948,4210.769128,4235.384512,4231.794768,4231.281948,4241.025537,4230.769127,4232.307589
4146.153745,4209.230666,4233.33323,4224.102461,4229.230666,4227.179384,4216.922974,4215.384512,4231.281948,4234.358871,4231.281948,4231.794768,4230.256307,4232.820409
4145.640924,4209.230666,4231.794768,4223.58964,4233.33323,4228.205025,4224.102461,4229.743486,4242.563999,4248.205024,4232.820409,4231.794768,4233.33323,4229.743486
4137.948617,4205.128102,4226.153743,4217.435794,4228.205025,4227.692204,4226.666563,4233.84605,4240.512717,4245.640922,4228.205025,4231.281948,4228.205025,4221.538358
4137.948617,4201.025538,4224.615281,4215.897333,4219.487076,4228.205025,4228.205025,4230.256307,4227.692204,4235.897332,4224.102461,4224.102461,4224.102461,4222.563999
4145.128104,4207.179384,4227.179384,4222.051179,4222.051179,4224.615281,4221.025538,4223.58964,4225.128102,4235.384512,4229.230666,4225.128102,4229.230666,4230.256307
4144.615283,4214.358871,4230.769127,4224.102461,4227.692204,4221.538358,4216.410153,4218.461435,4231.281948,4237.435794,4233.33323,4227.692204,4236.410153,4232.820409
4138.974258,4213.33323,4229.743486,4222.563999,4228.717845,4225.128102,4217.948615,4217.948615,4232.820409,4237.948614,4225.640922,4224.102461,4228.205025,4230.769127
4141.02554,4211.281948,4230.256307,4224.102461,4232.820409,4226.666563,4215.897333,4216.922974,4227.179384,4235.897332,4221.025538,4226.153743,4217.435794,4233.84605
4143.076822,4215.897333,4236.410153,4227.179384,4230.256307,4230.256307,4223.58964,4226.153743,4234.871691,4233.84605,4232.307589,4232.820409,4223.07682,4243.076819
4130.256309,4215.384512,4233.33323,4223.07682,4219.487076,4229.743486,4232.307589,4233.84605,4242.563999,4234.358871,4236.922973,4227.692204,4227.179384,4247.692204
4114.358874,4209.230666,4225.128102,4219.999897,4216.922974,4226.666563,4225.640922,4226.666563,4234.358871,4235.897332,4223.07682,4217.435794,4217.435794,4239.487076
4110.25631,4207.179384,4227.692204,4224.102461,4218.974256,4225.128102,4217.948615,4219.487076,4217.435794,4234.358871,4215.384512,4215.384512,4211.281948,4230.769127
4108.205028,4211.794769,4232.820409,4225.128102,4219.487076,4230.256307,4218.974256,4222.051179,4210.769128,4232.820409,4224.615281,4214.358871,4215.897333,4231.794768
4105.128105,4215.384512,4228.717845,4221.538358,4215.897333,4226.666563,4221.025538,4226.153743,4214.871692,4241.538358,4229.743486,4215.384512,4219.999897,4240.512717
4107.179387,4215.384512,4231.281948,4224.615281,4214.871692,4225.640922,4225.128102,4231.281948,4231.281948,4250.256306,4231.281948,4222.563999,4223.58964,4247.692204
4110.25631,4217.948615,4238.461435,4230.256307,4226.666563,4227.692204,4229.743486,4235.384512,4241.025537,4244.10246,4233.33323,4228.205025,4224.102461,4249.743486
4105.640925,4215.897333,4235.384512,4224.102461,4227.692204,4229.230666,4229.230666,4230.769127,4230.769127,4229.230666,4225.128102,4218.974256,4210.769128,4244.10246
4097.948618,4213.846051,4228.205025,4222.051179,4218.974256,4226.666563,4228.205025,4225.640922,4212.307589,4226.153743,4214.871692,4203.07682,4204.102461,4234.358871
4094.871695,4214.358871,4230.256307,4229.743486,4227.179384,4227.692204,4226.666563,4227.692204,4212.82041,4235.897332,4223.07682,4202.564,4210.769128,4232.307589
4096.410156,4215.897333,4235.897332,4230.256307,4241.025537,4227.692204,4227.692204,4231.281948,4225.128102,4245.128101,4233.84605,4210.256307,4217.435794,4240.512717
4100.51272,4217.948615,4235.897332,4229.743486,4236.922973,4227.692204,4227.692204,4232.307589,4235.897332,4248.717845,4232.820409,4208.205025,4224.615281,4244.615281
4104.102464,4219.999897,4234.358871,4231.794768,4229.230666,4228.205025,4222.051179,4228.205025,4234.871691,4247.179383,4229.230666,4198.974256,4229.230666,4237.948614
4101.538361,4218.974256,4236.922973,4230.769127,4232.307589,4227.692204,4228.205025,4231.281948,4230.256307,4245.128101,4226.153743,4198.974256,4224.615281,4234.358871
4091.794772,4215.384512,4234.358871,4225.640922,4229.230666,4224.102461,4235.897332,4236.410153,4221.538358,4237.948614,4220.512717,4197.948615,4214.358871,4233.84605
4086.666567,4214.871692,4225.128102,4223.58964,4222.051179,4221.025538,4223.58964,4225.640922,4202.051179,4228.205025,4214.871692,4186.666564,4206.666564,4230.769127
4089.74349,4216.922974,4222.051179,4224.102461,4222.563999,4222.563999,4212.307589,4215.384512,4190.769128,4230.769127,4216.410153,4180.512718,4203.07682,4230.769127
4089.74349,4214.358871,4222.563999,4222.051179,4223.07682,4224.102461,4219.487076,4219.999897,4189.230667,4234.871691,4217.435794,4182.05118,4203.07682,4230.769127
4088.205028,4210.769128,4221.025538,4219.999897,4224.102461,4225.128102,4228.205025,4229.230666,4187.692205,4231.794768,4214.358871,4188.717846,4208.205025,4232.307589
4094.358874,4216.922974,4224.102461,4223.07682,4227.179384,4223.07682,4227.692204,4234.871691,4197.948615,4233.33323,4220.512717,4197.435795,4212.82041,4233.84605
4097.435797,4221.538358,4230.769127,4224.102461,4223.58964,4224.615281,4223.07682,4230.769127,4214.871692,4237.435794,4228.205025,4204.102461,4216.922974,4235.384512
4091.281951,4211.794769,4227.179384,4216.410153,4212.82041,4219.487076,4214.358871,4217.948615,4200.512718,4232.820409,4224.102461,4208.205025,4211.281948,4238.974255
4090.769131,4206.666564,4224.102461,4216.922974,4215.897333,4218.461435,4216.922974,4218.461435,4188.717846,4228.205025,4222.051179,4214.358871,4205.640923,4243.076819
4099.9999,4216.922974,4229.743486,4228.205025,4226.666563,4220.512717,4227.692204,4233.33323,4211.794769,4232.820409,4231.794768,4220.512717,4214.358871,4247.179383
4098.974259,4219.487076,4227.692204,4226.153743,4225.128102,4224.615281,4227.692204,4232.307589,4224.615281,4236.410153,4232.820409,4218.974256,4218.974256,4247.179383
4085.128105,4205.128102,4215.897333,4215.384512,4216.922974,4222.051179,4222.051179,4218.974256,4202.051179,4232.307589,4218.974256,4214.358871,4206.153743,4238.461435
4081.538362,4197.435795,4215.384512,4215.384512,4213.846051,4218.974256,4219.999897,4215.897333,4186.666564,4229.743486,4215.384512,4214.871692,4198.974256,4233.33323
4095.897336,4207.692205,4223.07682,4220.512717,4225.640922,4219.487076,4217.435794,4218.974256,4193.333231,4233.33323,4224.615281,4218.974256,4209.743487,4241.025537
4108.717848,4211.794769,4224.615281,4222.051179,4229.743486,4224.615281,4215.384512,4217.435794,4204.615282,4234.871691,4228.205025,4219.999897,4212.82041,4247.179383
4107.179387,4202.051179,4222.563999,4218.974256,4219.487076,4223.07682,4219.487076,4215.897333,4204.102461,4232.307589,4226.666563,4223.07682,4208.205025,4244.615281
4104.615284,4204.102461,4223.58964,4221.025538,4221.538358,4220.512717,4228.205025,4224.102461,4206.666564,4231.794768,4228.717845,4230.769127,4209.230666,4244.615281
4108.717848,4214.358871,4224.615281,4223.58964,4226.666563,4222.563999,4230.769127,4234.358871,4213.846051,4227.692204,4226.666563,4227.692204,4210.769128,4248.717845
4108.717848,4210.256307,4222.563999,4221.025538,4219.999897,4222.563999,4222.051179,4229.230666,4206.666564,4223.07682,4215.897333,4218.974256,4203.589641,4244.615281
4103.589643,4199.999897,4216.922974,4218.974256,4219.487076,4222.051179,4217.435794,4217.435794,4190.256308,4224.615281,4210.769128,4213.846051,4190.769128,4233.84605
4106.666566,4204.615282,4215.897333,4223.07682,4230.256307,4223.07682,4223.58964,4215.384512,4187.179385,4227.179384,4215.384512,4218.461435,4193.846051,4238.461435
4112.820412,4211.281948,4221.538358,4223.07682,4227.692204,4222.051179,4222.051179,4216.410153,4194.358872,4221.025538,4215.897333,4224.615281,4199.999897,4250.256306
4105.640925,4203.07682,4223.58964,4217.435794,4217.948615,4219.999897,4221.025538,4215.384512,4186.153744,4214.358871,4204.615282,4221.025538,4182.564,4238.974255
4103.589643,4198.974256,4222.563999,4219.999897,4216.410153,4222.051179,4226.153743,4219.999897,4185.128103,4215.897333,4204.102461,4219.487076,4176.410154,4229.230666
4119.487079,4204.102461,4224.102461,4224.615281,4216.410153,4215.384512,4221.025538,4221.025538,4198.461436,4218.461435,4222.563999,4229.230666,4206.666564,4248.717845
4127.692207,4204.102461,4227.692204,4223.07682,4214.871692,4213.33323,4216.410153,4215.897333,4210.256307,4219.487076,4232.820409,4238.461435,4230.256307,4265.128101
4123.589643,4201.025538,4228.205025,4222.051179,4211.281948,4217.948615,4227.179384,4222.051179,4215.897333,4226.666563,4230.256307,4243.076819,4227.179384,4258.974255
4116.922976,4202.564,4223.58964,4219.487076,4212.82041,4220.512717,4233.84605,4232.820409,4224.615281,4234.871691,4226.153743,4241.538358,4219.999897,4249.743486
4107.692207,4197.435795,4215.897333,4214.358871,4217.948615,4217.948615,4228.717845,4230.256307,4218.974256,4233.33323,4218.461435,4230.769127,4215.384512,4244.10246
4107.692207,4192.30759,4218.461435,4215.384512,4217.435794,4223.07682,4228.717845,4226.153743,4214.358871,4236.410153,4219.487076,4231.794768,4221.538358,4246.666563
4120.51272,4200.512718,4228.717845,4222.563999,4215.897333,4223.07682,4229.743486,4230.769127,4229.230666,4244.615281,4234.358871,4247.692204,4236.410153,4252.820409
4122.564002,4205.128102,4228.717845,4220.512717,4218.974256,4221.538358,4230.256307,4235.384512,4238.974255,4240.512717,4231.794768,4244.10246,4236.410153,4249.743486
4113.333233,4196.410154,4222.051179,4216.410153,4220.512717,4222.563999,4229.230666,4231.281948,4230.769127,4232.820409,4219.487076,4230.256307,4230.256307,4246.666563
4108.717848,4191.281949,4218.461435,4217.948615,4219.999897,4226.153743,4227.692204,4221.538358,4223.58964,4231.794768,4222.563999,4227.692204,4230.769127,4243.58964
4110.76913,4197.435795,4219.999897,4216.922974,4219.999897,4224.615281,4229.230666,4220.512717,4220.512717,4231.281948,4230.256307,4232.820409,4231.281948,4239.487076
4121.02554,4204.102461,4224.615281,4218.461435,4216.922974,4220.512717,4228.717845,4230.256307,4227.692204,4231.794768,4230.769127,4239.487076,4230.769127,4245.640922
4124.615284,4203.589641,4221.025538,4222.051179,4213.846051,4219.999897,4225.128102,4235.384512,4233.33323,4234.358871,4224.615281,4239.487076,4233.84605,4249.743486
4117.948617,4199.999897,4217.435794,4221.538358,4214.358871,4220.512717,4226.153743,4231.794768,4223.58964,4229.743486,4218.974256,4232.307589,4229.743486,4236.922973
4116.922976,4198.974256,4216.922974,4216.410153,4211.794769,4218.461435,4230.256307,4229.743486,4208.205025,4217.948615,4214.358871,4226.666563,4218.974256,4228.717845
4117.948617,4199.487077,4215.897333,4215.384512,4209.230666,4215.897333,4232.820409,4232.307589,4202.051179,4216.410153,4215.384512,4229.743486,4220.512717,4233.33323
4115.897335,4198.974256,4216.410153,4216.410153,4216.410153,4221.025538,4235.384512,4234.358871,4207.692205,4223.07682,4223.58964,4231.281948,4230.769127,4232.820409
4118.461438,4202.564,4220.512717,4218.974256,4224.102461,4222.051179,4234.871691,4234.358871,4216.922974,4229.230666,4227.692204,4234.358871,4231.794768,4230.256307
4124.615284,4209.230666,4222.563999,4218.974256,4221.025538,4223.07682,4233.33323,4234.358871,4231.281948,4237.948614,4228.205025,4234.358871,4224.615281,4233.84605
4125.128104,4207.692205,4222.051179,4217.435794,4215.384512,4224.615281,4234.871691,4234.358871,4235.384512,4243.58964,4230.256307,4229.230666,4220.512717,4234.871691
4127.179386,4202.051179,4223.58964,4217.948615,4215.897333,4226.153743,4232.820409,4232.307589,4238.461435,4244.10246,4233.84605,4239.487076,4219.999897,4235.897332
4134.358873,4203.589641,4224.102461,4216.922974,4216.922974,4220.512717,4230.256307,4232.820409,4242.563999,4248.717845,4234.871691,4236.922973,4219.999897,4236.922973
4138.974258,4205.128102,4225.128102,4216.922974,4213.846051,4218.974256,4230.769127,4233.33323,4239.487076,4246.666563,4233.33323,4183.076821,4221.538358,4236.922973
4140.512719,4204.615282,4229.743486,4223.58964,4212.307589,4220.512717,4231.281948,4230.769127,4225.640922,4235.897332,4233.84605,4133.846053,4226.153743,4239.487076
4142.051181,4205.640923,4235.384512,4226.153743,4216.410153,4223.07682,4235.384512,4234.358871,4224.615281,4239.487076,4233.84605,4136.922976,4229.743486,4240.512717
4139.487078,4204.102461,4228.717845,4216.410153,4217.948615,4220.512717,4235.897332,4239.487076,4221.025538,4244.10246,4228.205025,4141.53836,4219.999897,4231.794768
4137.435796,4200.512718,4219.999897,4215.897333,4217.435794,4221.538358,4229.743486,4235.384512,4209.230666,4235.384512,4223.58964,4131.28195,4213.33323,4223.58964
4138.974258,4201.538359,4221.025538,4223.58964,4225.128102,4223.07682,4227.179384,4230.769127,4209.743487,4237.435794,4227.179384,4142.051181,4223.07682,4227.179384
4142.051181,4209.230666,4222.051179,4221.538358,4230.256307,4221.025538,4227.692204,4229.230666,4216.922974,4244.615281,4233.33323,4154.358873,4232.307589,4231.281948
4146.666565,4216.410153,4221.025538,4220.512717,4223.07682,4219.487076,4228.717845,4228.717845,4217.435794,4236.410153,4237.948614,4157.435796,4233.33323,4231.281948
4154.358873,4216.410153,4226.666563,4225.128102,4215.384512,4219.999897,4232.307589,4232.307589,4227.692204,4232.307589,4239.999896,4173.846052,4233.84605,4231.794768
4153.846052,4208.717846,4227.692204,4221.538358,4214.871692,4216.922974,4230.256307,4233.33323,4234.358871,4236.922973,4235.384512,4186.666564,4233.84605,4231.794768
4150.256309,4207.179384,4221.025538,4215.897333,4222.563999,4217.948615,4224.615281,4228.717845,4226.666563,4234.871691,4230.256307,4186.666564,4229.743486,4228.205025
4154.358873,4216.410153,4221.538358,4225.640922,4228.717845,4223.07682,4228.717845,4230.256307,4230.769127,4233.84605,4231.794768,4193.333231,4229.743486,4221.025538
4156.410155,4218.461435,4221.025538,4228.717845,4222.051179,4221.538358,4230.256307,4232.820409,4234.358871,4234.871691,4229.743486,4202.051179,4229.743486,4217.948615
4153.333232,4211.794769,4215.384512,4217.948615,4218.974256,4221.025538,4226.666563,4227.692204,4223.07682,4230.256307,4227.179384,4209.230666,4227.179384,4221.538358
4158.974257,4211.794769,4221.538358,4221.025538,4226.666563,4219.999897,4228.717845,4228.717845,4226.153743,4230.769127,4231.794768,4225.640922,4231.281948,4229.230666
4169.230667,4218.974256,4232.820409,4233.84605,4231.281948,4220.512717,4232.307589,4233.84605,4249.230665,4238.974255,4236.922973,4236.410153,4236.922973,4233.84605
4166.666565,4219.999897,4229.230666,4229.230666,4230.256307,4218.461435,4225.640922,4232.307589,4257.948614,4241.538358,4235.384512,4232.820409,4236.922973,4230.256307
4155.384514,4211.281948,4217.435794,4215.897333,4224.102461,4217.948615,4219.999897,4229.230666,4247.179383,4236.410153,4228.717845,4229.743486,4231.281948,4220.512717
4156.410155,4206.153743,4215.897333,4218.974256,4216.922974,4216.922974,4223.07682,4227.692204,4234.871691,4233.33323,4230.769127,4228.205025,4224.615281,4216.922974
4158.974257,4200.512718,4220.512717,4222.563999,4214.358871,4219.999897,4225.128102,4229.230666,4232.307589,4235.384512,4234.358871,4226.666563,4214.871692,4217.435794
4149.230668,4193.333231,4217.435794,4214.358871,4215.897333,4218.974256,4223.58964,4228.205025,4220.512717,4230.256307,4225.640922,4226.666563,4202.564,4211.794769
4157.948616,4207.692205,4216.410153,4216.410153,4221.538358,4219.999897,4218.974256,4221.025538,4207.179384,4218.974256,4216.922974,4226.666563,4198.974256,4212.307589
4185.640923,4234.358871,4224.102461,4229.743486,4228.717845,4217.948615,4215.897333,4217.948615,4218.974256,4222.051179,4218.974256,4230.256307,4203.589641,4221.025538
4188.717846,4237.435794,4229.230666,4232.820409,4224.615281,4212.82041,4214.871692,4219.487076,4235.897332,4232.307589,4218.461435,4230.769127,4196.410154,4216.410153
4175.897334,4226.666563,4222.563999,4224.102461,4216.410153,4211.281948,4215.384512,4218.461435,4219.999897,4225.640922,4211.794769,4224.102461,4185.128103,4205.128102
4179.999898,4227.179384,4219.487076,4221.538358,4221.025538,4217.435794,4216.922974,4215.384512,4208.205025,4218.461435,4211.794769,4223.07682,4191.281949,4211.794769
4184.615282,4226.666563,4223.07682,4222.563999,4223.58964,4216.922974,4216.922974,4210.769128,4206.153743,4217.435794,4214.871692,4226.153743,4201.538359,4216.410153
4183.589641,4224.102461,4223.07682,4225.640922,4220.512717,4214.871692,4213.846051,4205.640923,4196.410154,4213.33323,4215.897333,4221.025538,4197.948615,4205.128102
4182.564,4229.743486,4221.025538,4228.205025,4224.102461,4219.999897,4214.358871,4210.256307,4199.487077,4217.948615,4215.897333,4214.358871,4196.922974,4198.974256
4179.487077,4230.256307,4222.563999,4225.640922,4230.769127,4223.58964,4227.692204,4223.07682,4218.461435,4231.281948,4217.948615,4214.358871,4205.640923,4204.615282
4186.666564,4230.769127,4227.179384,4227.179384,4230.769127,4222.563999,4233.33323,4232.307589,4237.435794,4239.487076,4230.256307,4226.666563,4217.435794,4212.307589
4196.922974,4234.358871,4232.307589,4229.743486,4230.769127,4217.435794,4219.487076,4228.717845,4250.769127,4239.999896,4235.897332,4234.358871,4219.487076,4215.384512
4194.358872,4232.820409,4233.33323,4227.692204,4232.307589,4216.922974,4211.281948,4216.922974,4246.666563,4231.281948,4223.58964,4228.205025,4213.33323,4215.384512
4196.410154,4231.794768,4235.384512,4229.230666,4230.256307,4217.435794,4222.051179,4219.487076,4235.384512,4224.102461,4216.922974,4230.256307,4212.307589,4219.487076
4203.589641,4233.33323,4235.897332,4233.84605,4227.179384,4218.974256,4230.256307,4230.769127,4243.076819,4224.615281,4221.025538,4233.33323,4214.871692,4221.538358
4193.846051,4225.128102,4226.153743,4227.179384,4223.07682,4218.461435,4229.230666,4229.230666,4242.563999,4219.999897,4219.999897,4221.025538,4209.743487,4211.281948
4182.564,4211.794769,4217.435794,4217.948615,4217.948615,4221.538358,4232.820409,4225.640922,4226.153743,4213.33323,4214.871692,4212.307589,4200.512718,4202.564
4191.281949,4216.922974,4224.615281,4225.640922,4222.563999,4218.974256,4234.871691,4228.205025,4223.07682,4221.025538,4216.922974,4215.897333,4201.538359,4210.256307
4202.051179,4231.794768,4234.358871,4232.307589,4228.717845,4219.999897,4230.256307,4229.743486,4238.461435,4230.769127,4223.58964,4220.512717,4211.794769,4216.922974
4204.102461,4235.897332,4237.435794,4230.256307,4229.230666,4223.58964,4228.717845,4231.794768,4248.717845,4231.281948,4228.205025,4225.640922,4210.256307,4215.897333
4199.487077,4231.794768,4236.922973,4232.307589,4231.794768,4225.128102,4225.640922,4229.743486,4253.84605,4228.205025,4226.153743,4224.102461,4197.435795,4213.33323
4189.743487,4230.256307,4231.794768,4232.820409,4230.769127,4219.999897,4217.435794,4219.999897,4245.128101,4228.205025,4221.025538,4217.435794,4194.871692,4206.153743
4179.999898,4230.256307,4225.640922,4224.615281,4226.666563,4222.563999,4215.897333,4218.461435,4235.384512,4229.230666,4219.999897,4214.871692,4201.538359,4201.025538
4170.769129,4227.179384,4223.58964,4221.025538,4231.281948,4224.615281,4217.948615,4218.974256,4223.58964,4226.666563,4217.948615,4206.153743,4195.897333,4199.487077
4167.692206,4227.179384,4225.640922,4230.256307,4235.384512,4221.538358,4213.33323,4215.897333,4212.82041,4225.128102,4215.384512,4197.948615,4191.281949,4199.999897
4170.769129,4233.84605,4230.769127,4233.33323,4230.256307,4217.948615,4213.33323,4215.897333,4213.846051,4229.230666,4218.461435,4207.692205,4200.512718,4201.025538
4173.333231,4236.410153,4232.820409,4231.281948,4230.769127,4217.948615,4216.922974,4218.974256,4221.025538,4230.769127,4222.051179,4216.922974,4205.640923,4203.589641
4171.281949,4232.307589,4231.794768,4231.281948,4235.384512,4219.999897,4217.948615,4219.487076,4221.538358,4222.051179,4221.025538,4215.897333,4202.564,4203.589641
4167.692206,4228.205025,4227.692204,4226.666563,4228.717845,4218.974256,4221.025538,4218.461435,4215.384512,4213.33323,4218.461435,4215.384512,4202.564,4202.564
4159.999898,4221.025538,4226.153743,4217.435794,4217.435794,4217.435794,4222.051179,4219.487076,4205.640923,4212.307589,4216.922974,4208.717846,4201.025538,4200.512718
4153.333232,4212.82041,4224.615281,4215.384512,4220.512717,4217.948615,4218.461435,4219.999897,4192.30759,4212.307589,4211.281948,4199.999897,4189.230667,4194.358872
4160.512719,4214.871692,4222.051179,4220.512717,4227.692204,4223.58964,4216.922974,4218.461435,4190.769128,4212.82041,4209.230666,4201.025538,4182.564,4193.333231
4164.102462,4217.435794,4219.999897,4219.999897,4226.153743,4223.58964,4217.435794,4214.358871,4193.846051,4216.410153,4213.33323,4202.051179,4191.281949,4196.922974
4157.435796,4214.871692,4219.487076,4218.461435,4225.128102,4221.538358,4215.897333,4215.384512,4196.410154,4219.487076,4217.435794,4201.538359,4198.974256,4197.948615
4162.05118,4224.615281,4225.128102,4227.692204,4232.307589,4220.512717,4214.358871,4217.435794,4207.692205,4223.07682,4219.487076,4209.230666,4197.948615,4198.974256
4177.948616,4235.897332,4232.820409,4236.410153,4237.948614,4227.179384,4217.948615,4217.435794,4227.179384,4229.743486,4221.025538,4219.999897,4199.487077,4204.102461
4179.999898,4234.358871,4233.33323,4232.820409,4234.871691,4225.128102,4219.999897,4219.999897,4231.281948,4233.84605,4218.974256,4214.871692,4199.999897,4205.640923
4171.281949,4230.256307,4230.256307,4229.743486,4231.281948,4219.999897,4218.461435,4221.025538,4222.563999,4227.179384,4214.358871,4202.564,4190.256308,4199.999897
4170.256308,4233.33323,4232.307589,4233.84605,4231.794768,4219.999897,4221.538358,4218.461435,4215.384512,4217.948615,4214.871692,4207.692205,4183.076821,4198.974256
4172.30759,4236.410153,4230.256307,4237.435794,4229.743486,4224.102461,4225.128102,4215.897333,4218.974256,4215.384512,4218.461435,4217.948615,4193.846051,4203.07682
4167.179385,4227.692204,4218.461435,4229.743486,4227.692204,4221.538358,4217.948615,4216.410153,4214.871692,4217.948615,4215.384512,4207.692205,4201.538359,4198.974256
4162.564001,4221.025538,4214.358871,4220.512717,4232.820409,4221.025538,4215.897333,4222.563999,4211.794769,4225.128102,4215.897333,4198.461436,4196.922974,4197.948615
4168.717847,4230.769127,4222.051179,4225.128102,4236.922973,4222.563999,4228.205025,4229.743486,4231.281948,4236.922973,4226.666563,4211.281948,4206.153743,4207.692205
4175.384513,4239.999896,4228.205025,4234.871691,4234.358871,4225.128102,4229.743486,4227.179384,4249.230665,4239.487076,4228.205025,4221.538358,4218.461435,4207.692205
4173.333231,4231.794768,4228.205025,4232.307589,4233.84605,4224.615281,4222.563999,4225.640922,4242.563999,4234.871691,4224.615281,4216.922974,4208.717846,4205.128102
4173.333231,4230.769127,4227.692204,4228.205025,4234.358871,4221.025538,4226.666563,4233.33323,4243.076819,4239.487076,4230.256307,4215.897333,4198.461436,4213.33323
4174.871693,4235.384512,4224.615281,4229.230666,4230.256307,4221.538358,4229.230666,4231.794768,4248.717845,4241.538358,4228.205025,4218.461435,4202.051179,4212.307589
4164.615283,4223.58964,4216.410153,4226.153743,4228.717845,4223.58964,4220.512717,4218.461435,4227.692204,4229.743486,4212.82041,4213.33323,4197.948615,4197.435795
4161.53836,4218.461435,4217.435794,4224.615281,4231.281948,4223.07682,4214.358871,4213.33323,4209.230666,4223.07682,4212.307589,4207.179384,4194.358872,4198.461436
4177.435795,4234.871691,4228.205025,4232.820409,4232.307589,4221.538358,4217.948615,4217.948615,4225.128102,4233.84605,4224.102461,4214.358871,4208.717846,4210.769128
4182.564,4236.922973,4230.256307,4233.84605,4231.281948,4222.051179,4216.922974,4217.948615,4237.948614,4235.384512,4222.051179,4219.487076,4214.871692,4206.666564
4169.743488,4219.999897,4222.563999,4226.153743,4229.743486,4217.948615,4213.846051,4212.82041,4218.461435,4221.538358,4213.33323,4206.666564,4195.897333,4198.461436
4166.666565,4221.025538,4224.102461,4228.717845,4229.230666,4218.461435,4218.461435,4214.871692,4206.666564,4217.435794,4215.384512,4199.487077,4183.076821,4200.512718
4174.871693,4233.84605,4228.205025,4233.33323,4230.769127,4218.461435,4215.384512,4214.358871,4204.615282,4219.487076,4219.487076,4203.589641,4186.666564,4204.102461
4172.30759,4227.179384,4225.128102,4225.128102,4231.281948,4218.974256,4204.102461,4206.666564,4197.435795,4214.358871,4211.794769,4203.07682,4186.666564,4199.487077
4166.666565,4217.948615,4219.999897,4224.102461,4228.717845,4215.897333,4205.128102,4205.128102,4189.743487,4215.384512,4207.692205,4197.948615,4182.05118,4197.435795
4174.871693,4223.07682,4222.563999,4232.307589,4226.153743,4216.410153,4210.769128,4204.615282,4189.230667,4217.435794,4209.230666,4198.461436,4184.615282,4202.051179
4185.128103,4227.692204,4226.666563,4231.281948,4227.179384,4219.487076,4210.256307,4198.461436,4181.538359,4207.692205,4205.640923,4198.974256,4187.692205,4202.564
4185.640923,4227.179384,4225.128102,4228.205025,4231.794768,4223.58964,4212.307589,4199.999897,4183.589641,4205.128102,4207.692205,4199.999897,4189.743487,4199.999897
4181.025539,4230.256307,4225.640922,4231.794768,4234.871691,4222.051179,4216.922974,4212.82041,4201.025538,4220.512717,4212.82041,4206.153743,4190.256308,4201.025538
4187.692205,4233.33323,4232.820409,4233.33323,4233.84605,4220.512717,4216.922974,4219.487076,4223.07682,4231.281948,4217.435794,4214.871692,4191.281949,4211.794769
4196.922974,4234.358871,4235.384512,4232.307589,4232.307589,4220.512717,4214.871692,4216.922974,4233.84605,4230.256307,4223.58964,4222.051179,4196.922974,4218.461435
4192.30759,4235.384512,4232.307589,4233.33323,4233.33323,4220.512717,4213.33323,4213.33323,4230.769127,4227.692204,4224.102461,4221.538358,4201.025538,4215.897333
4185.128103,4227.692204,4230.769127,4232.307589,4233.33323,4220.512717,4214.871692,4214.871692,4224.615281,4230.256307,4217.948615,4218.974256,4197.435795,4215.384512
4185.640923,4222.051179,4227.692204,4228.205025,4232.307589,4217.948615,4214.358871,4214.871692,4221.538358,4227.692204,4216.410153,4219.999897,4191.794769,4216.410153
4185.640923,4224.102461,4219.487076,4224.615281,4225.640922,4216.410153,4207.179384,4205.128102,4205.128102,4212.307589,4214.871692,4217.435794,4186.666564,4212.82041
4181.538359,4218.461435,4221.538358,4225.128102,4217.435794,4218.461435,4209.743487,4201.538359,4187.179385,4204.102461,4208.717846,4210.769128,4186.153744,4209.743487
4188.205026,4221.538358,4230.256307,4230.769127,4223.07682,4221.025538,4217.948615,4205.640923,4198.461436,4214.871692,4213.846051,4215.897333,4197.948615,4213.846051
4203.589641,4237.435794,4236.410153,4233.84605,4232.307589,4218.974256,4211.281948,4207.179384,4223.07682,4224.615281,4224.615281,4229.743486,4211.794769,4223.07682
4190.256308,4220.512717,4231.281948,4223.07682,4220.512717,4219.487076,4202.051179,4208.205025,4213.33323,4213.846051,4212.307589,4224.615281,4190.256308,4212.82041
4168.205026,4196.922974,4218.461435,4213.33323,4213.33323,4217.435794,4206.153743,4210.769128,4177.948616,4206.153743,4195.897333,4212.82041,4166.153744,4196.922974
4187.692205,4219.487076,4223.07682,4226.666563,4228.717845,4219.999897,4215.384512,4215.897333,4195.897333,4224.102461,4215.897333,4224.102461,4206.153743,4215.384512
4211.281948,4237.948614,4234.358871,4235.384512,4236.410153,4222.051179,4217.435794,4224.102461,4253.333229,4246.666563,4249.230665,4238.974255,4254.35887,4244.10246
4193.846051,4212.82041,4228.205025,4219.999897,4231.794768,4223.07682,4216.922974,4224.615281,4271.794767,4250.769127,4248.205024,4234.871691,4244.615281,4236.410153
4177.948616,4199.487077,4219.487076,4212.82041,4227.692204,4222.051179,4216.410153,4217.435794,4249.230665,4243.58964,4232.820409,4228.717845,4227.179384,4217.435794
4184.102462,4200.512718,4218.461435,4217.435794,4217.948615,4220.512717,4210.256307,4214.358871,4231.794768,4233.33323,4232.307589,4224.102461,4236.410153,4216.410153
4182.05118,4191.281949,4213.33323,4212.82041,4210.769128,4214.358871,4202.051179,4211.281948,4213.846051,4226.153743,4233.84605,4216.410153,4230.769127,4217.948615
4181.538359,4193.333231,4213.846051,4210.256307,4215.384512,4216.410153,4201.538359,4205.128102,4204.102461,4228.717845,4228.205025,4217.948615,4213.846051,4217.948615
4185.128103,4196.922974,4217.948615,4213.846051,4216.410153,4222.051179,4208.717846,4205.640923,4201.538359,4227.692204,4218.974256,4219.999897,4207.179384,4214.871692
4181.025539,4190.769128,4215.384512,4213.846051,4214.871692,4221.538358,4212.307589,4211.281948,4196.410154,4222.563999,4219.999897,4221.025538,4208.205025,4213.846051
4192.30759,4200.512718,4224.102461,4216.922974,4222.563999,4221.025538,4214.871692,4217.435794,4222.051179,4233.33323,4239.487076,4238.461435,4224.615281,4229.743486
4199.487077,4208.717846,4231.794768,4219.999897,4230.256307,4224.615281,4216.922974,4219.999897,4255.384511,4244.10246,4246.666563,4248.205024,4231.281948,4236.922973
4185.128103,4194.871692,4217.435794,4216.922974,4227.692204,4222.563999,4214.871692,4215.897333,4238.974255,4237.435794,4231.281948,4233.33323,4221.538358,4221.538358
4181.025539,4190.769128,4209.230666,4215.384512,4219.487076,4217.948615,4215.384512,4216.410153,4216.922974,4228.717845,4223.58964,4226.666563,4219.999897,4213.33323
4188.205026,4196.410154,4214.871692,4215.897333,4214.358871,4219.999897,4220.512717,4220.512717,4226.666563,4232.820409,4231.281948,4232.307589,4224.102461,4218.461435
4187.179385,4193.333231,4216.410153,4215.384512,4213.846051,4222.051179,4222.563999,4219.999897,4227.692204,4231.281948,4234.358871,4227.692204,4222.563999,4217.435794
4189.230667,4195.384513,4215.384512,4217.435794,4216.410153,4219.999897,4220.512717,4217.435794,4213.33323,4218.461435,4227.179384,4222.563999,4216.922974,4212.307589
4197.948615,4197.948615,4215.384512,4214.871692,4217.948615,4216.922974,4220.512717,4218.461435,4212.82041,4217.948615,4222.051179,4226.153743,4216.410153,4217.435794
4205.640923,4199.487077,4217.948615,4214.871692,4222.051179,4221.538358,4216.922974,4218.974256,4232.307589,4231.794768,4229.230666,4231.794768,4223.07682,4228.205025
4218.461435,4211.281948,4227.179384,4226.666563,4231.281948,4221.025538,4210.256307,4216.922974,4252.820409,4236.922973,4243.076819,4241.538358,4236.922973,4237.948614
4222.563999,4218.461435,4230.769127,4232.820409,4229.743486,4221.538358,4211.794769,4215.384512,4263.076819,4236.410153,4245.128101,4248.205024,4239.487076,4237.435794
4215.897333,4211.281948,4222.563999,4225.640922,4221.025538,4222.563999,4214.871692,4214.871692,4262.051178,4243.076819,4241.025537,4244.615281,4232.307589,4231.281948
4226.153743,4215.384512,4224.102461,4228.205025,4221.538358,4227.179384,4215.384512,4215.384512,4272.307588,4248.205024,4248.717845,4247.179383,4238.974255,4238.974255
4236.922973,4225.128102,4230.256307,4233.84605,4228.205025,4225.640922,4213.846051,4217.948615,4284.102459,4249.743486,4249.230665,4252.820409,4239.999896,4244.615281
4223.58964,4218.461435,4223.58964,4226.666563,4227.692204,4224.615281,4216.922974,4223.07682,4276.922972,4246.153742,4232.820409,4243.58964,4222.563999,4234.358871
4211.281948,4207.179384,4213.33323,4216.922974,4228.205025,4225.128102,4224.102461,4228.717845,4261.538357,4238.461435,4226.153743,4231.794768,4208.717846,4226.153743
4214.871692,4210.769128,4213.846051,4222.051179,4232.820409,4228.205025,4227.692204,4233.84605,4265.640921,4243.076819,4234.358871,4233.33323,4212.82041,4229.743486
4218.974256,4218.461435,4218.974256,4230.256307,4230.769127,4228.717845,4224.102461,4232.307589,4276.410152,4247.692204,4234.871691,4234.358871,4219.487076,4231.794768
4215.897333,4210.256307,4216.410153,4224.102461,4223.58964,4227.692204,4222.563999,4228.717845,4269.230665,4240.512717,4230.256307,4230.769127,4215.384512,4227.692204
4214.871692,4198.461436,4212.307589,4212.82041,4217.948615,4226.153743,4223.58964,4231.794768,4253.333229,4237.435794,4229.230666,4228.205025,4212.307589,4225.128102
4216.410153,4205.128102,4209.743487,4214.358871,4217.435794,4223.58964,4218.461435,4230.769127,4244.615281,4237.948614,4227.179384,4228.205025,4215.384512,4223.58964
4218.974256,4218.461435,4210.769128,4224.102461,4223.07682,4222.563999,4217.435794,4220.512717,4245.640922,4232.820409,4229.230666,4231.281948,4221.025538,4226.666563
4219.487076,4215.384512,4215.384512,4223.07682,4227.692204,4223.07682,4223.58964,4215.897333,4249.230665,4229.230666,4232.307589,4233.33323,4218.974256,4227.179384
4223.58964,4210.256307,4216.922974,4216.410153,4228.717845,4225.640922,4226.666563,4222.051179,4250.769127,4233.84605,4231.281948,4230.769127,4215.384512,4224.102461
4233.84605,4220.512717,4217.435794,4218.974256,4228.717845,4226.666563,4229.743486,4224.102461,4256.410152,4240.512717,4232.820409,4233.33323,4222.051179,4231.794768
4225.640922,4207.179384,4216.922974,4220.512717,4228.717845,4226.666563,4233.84605,4219.999897,4257.435793,4239.999896,4226.153743,4236.922973,4211.794769,4235.897332
4210.256307,4186.153744,4215.897333,4216.922974,4228.717845,4224.615281,4226.666563,4213.33323,4235.897332,4229.230666,4218.461435,4231.281948,4190.256308,4227.692204
4230.256307,4215.897333,4223.07682,4226.153743,4231.794768,4227.179384,4219.487076,4216.922974,4239.487076,4227.692204,4228.717845,4228.205025,4196.410154,4228.205025
4256.922973,4260.512716,4228.717845,4242.051178,4238.461435,4228.205025,4226.666563,4226.666563,4273.333229,4239.999896,4235.897332,4230.769127,4207.179384,4233.84605
4245.640922,4255.897332,4219.999897,4241.025537,4238.974255,4228.205025,4227.179384,4223.58964,4271.281947,4234.358871,4216.410153,4225.128102,4184.102462,4221.025538
4226.666563,4235.384512,4212.82041,4228.717845,4230.256307,4224.615281,4216.410153,4214.871692,4225.128102,4211.281948,4195.897333,4213.33323,4155.897334,4203.589641
4230.769127,4234.358871,4215.897333,4224.615281,4223.58964,4224.615281,4214.871692,4210.256307,4196.922974,4201.025538,4194.871692,4204.615282,4158.974257,4201.025538
4229.743486,4227.692204,4209.230666,4225.640922,4226.666563,4225.128102,4216.922974,4208.205025,4189.743487,4204.102461,4197.948615,4199.487077,4171.281949,4206.153743
4224.615281,4224.615281,4204.102461,4222.051179,4231.794768,4229.743486,4214.871692,4211.794769,4188.205026,4199.999897,4197.948615,4199.487077,4167.692206,4211.794769
4230.769127,4230.256307,4210.256307,4217.435794,4229.230666,4229.230666,4214.358871,4216.410153,4192.82041,4201.538359,4197.435795,4202.051179,4154.871693,4208.717846
4231.794768,4222.563999,4210.256307,4215.897333,4222.563999,4227.692204,4217.435794,4216.922974,4193.333231,4214.358871,4197.435795,4195.897333,4153.333232,4201.025538
4227.692204,4216.410153,4206.666564,4218.461435,4219.999897,4225.640922,4218.974256,4221.025538,4188.717846,4220.512717,4201.025538,4190.256308,4161.53836,4207.692205
4229.743486,4224.102461,4209.230666,4219.999897,4221.025538,4225.640922,4218.461435,4231.281948,4196.410154,4219.487076,4201.538359,4189.743487,4159.999898,4216.922974
4233.84605,4230.769127,4212.307589,4218.974256,4221.025538,4226.153743,4219.487076,4231.794768,4203.07682,4217.435794,4199.999897,4187.179385,4155.384514,4215.384512
4234.871691,4227.179384,4212.82041,4218.461435,4218.974256,4226.666563,4227.692204,4228.717845,4196.410154,4208.717846,4201.538359,4185.640923,4155.897334,4213.846051
4234.358871,4221.538358,4208.717846,4218.461435,4217.948615,4223.58964,4232.820409,4231.281948,4185.128103,4199.999897,4199.999897,4183.589641,4152.820411,4212.82041
4226.666563,4210.256307,4196.410154,4210.256307,4211.794769,4220.512717,4230.769127,4229.230666,4166.153744,4191.794769,4188.205026,4170.769129,4141.53836,4202.051179
4222.563999,4199.487077,4192.30759,4201.025538,4208.717846,4225.640922,4235.897332,4222.563999,4141.02554,4183.589641,4179.999898,4154.871693,4133.846053,4195.897333
4226.666563,4201.025538,4198.461436,4204.615282,4209.743487,4223.58964,4232.307589,4218.974256,4130.76913,4187.692205,4183.076821,4151.79477,4137.948617,4198.974256
4222.563999,4202.051179,4191.281949,4206.666564,4208.717846,4218.461435,4217.435794,4215.384512,4124.615284,4189.743487,4184.102462,4144.615283,4142.051181,4191.281949
4219.487076,4195.897333,4181.025539,4199.487077,4212.82041,4224.102461,4214.358871,4212.82041,4111.794771,4183.076821,4182.564,4135.897335,4146.666565,4188.717846
4228.205025,4197.948615,4186.153744,4201.538359,4216.410153,4228.205025,4214.358871,4216.410153,4121.02554,4189.743487,4184.102462,4144.102463,4155.897334,4199.999897
4233.84605,4209.230666,4193.333231,4211.281948,4215.384512,4221.025538,4205.640923,4216.410153,4136.922976,4203.07682,4188.717846,4152.307591,4156.922975,4202.564
4237.948614,4215.897333,4198.461436,4217.948615,4222.563999,4229.230666,4210.769128,4214.871692,4150.256309,4207.179384,4196.410154,4154.871693,4156.922975,4198.974256
4249.230665,4224.102461,4204.615282,4222.051179,4234.871691,4234.358871,4217.435794,4217.435794,4175.897334,4215.897333,4203.07682,4164.615283,4166.153744,4208.717846
4256.922973,4237.435794,4208.717846,4223.58964,4233.33323,4225.128102,4205.128102,4212.307589,4195.897333,4224.615281,4201.538359,4171.79477,4172.30759,4221.025538
4248.717845,4225.128102,4206.666564,4216.922974,4229.230666,4220.512717,4200.512718,4206.666564,4181.538359,4213.846051,4196.922974,4165.128103,4163.076821,4210.769128
4246.666563,4211.281948,4208.717846,4215.897333,4232.820409,4231.281948,4216.410153,4212.82041,4176.410154,4207.692205,4199.999897,4166.666565,4166.666565,4205.640923
4263.589639,4241.538358,4213.846051,4229.230666,4235.897332,4234.358871,4220.512717,4218.974256,4201.538359,4220.512717,4204.615282,4176.410154,4187.692205,4218.974256
4267.179383,4265.640921,4218.461435,4235.897332,4233.33323,4232.820409,4215.897333,4221.025538,4219.487076,4222.563999,4202.051179,4177.948616,4178.974257,4219.487076
4249.743486,4245.128101,4221.538358,4228.717845,4230.769127,4229.230666,4224.615281,4228.717845,4218.461435,4216.410153,4198.461436,4180.512718,4154.871693,4209.743487
4241.538358,4231.281948,4223.58964,4225.128102,4230.256307,4225.640922,4231.281948,4231.794768,4224.615281,4220.512717,4204.102461,4188.717846,4161.53836,4212.82041
4237.435794,4237.948614,4217.948615,4225.128102,4230.769127,4228.205025,4222.563999,4222.051179,4222.563999,4218.461435,4203.07682,4184.102462,4172.30759,4213.846051
4218.974256,4231.794768,4205.640923,4219.999897,4230.256307,4230.769127,4214.871692,4214.871692,4194.358872,4203.07682,4189.230667,4169.743488,4159.487078,4201.538359
4209.230666,4224.615281,4206.153743,4218.461435,4229.743486,4230.769127,4219.999897,4215.897333,4175.897334,4198.974256,4187.179385,4169.743488,4154.358873,4198.461436
4214.358871,4228.717845,4213.846051,4224.102461,4228.205025,4228.205025,4225.128102,4217.948615,4186.666564,4206.153743,4201.025538,4184.615282,4164.615283,4205.640923
4214.871692,4230.256307,4211.281948,4225.640922,4227.692204,4227.179384,4220.512717,4217.435794,4194.358872,4210.769128,4203.589641,4191.281949,4166.666565,4209.743487
4214.358871,4234.358871,4208.717846,4226.153743,4229.743486,4226.666563,4215.384512,4216.410153,4192.30759,4215.384512,4198.461436,4183.589641,4171.79477,4212.82041
4216.922974,4244.10246,4216.922974,4230.256307,4231.281948,4230.256307,4219.487076,4217.948615,4211.281948,4221.538358,4209.230666,4191.794769,4186.153744,4216.410153
4219.487076,4243.076819,4224.615281,4229.743486,4229.743486,4230.769127,4227.179384,4218.974256,4228.205025,4219.999897,4217.435794,4213.846051,4189.230667,4220.512717
4218.461435,4233.84605,4220.512717,4225.128102,4228.717845,4231.281948,4225.128102,4216.410153,4208.717846,4204.102461,4204.615282,4186.153744,4177.435795,4218.974256
4209.743487,4233.84605,4213.33323,4226.153743,4231.794768,4230.256307,4216.410153,4213.33323,4180.512718,4195.384513,4195.897333,4113.333233,4171.281949,4212.307589
4205.640923,4237.435794,4211.794769,4228.205025,4233.33323,4232.307589,4218.461435,4217.948615,4182.564,4210.256307,4201.538359,4084.615285,4174.358872,4212.307589
4206.666564,4230.769127,4211.281948,4223.07682,4228.717845,4230.769127,4227.179384,4220.512717,4185.640923,4219.999897,4201.538359,4101.538361,4171.79477,4215.897333
4207.692205,4227.692204,4207.692205,4219.999897,4227.692204,4230.769127,4225.640922,4214.358871,4174.358872,4205.640923,4197.435795,4104.615284,4169.743488,4213.33323
4207.179384,4234.871691,4208.717846,4222.563999,4232.307589,4231.281948,4218.461435,4212.307589,4169.230667,4196.922974,4201.025538,4104.615284,4171.281949,4209.743487
4206.666564,4232.307589,4215.384512,4224.102461,4232.820409,4236.410153,4216.410153,4210.769128,4172.820411,4204.102461,4199.999897,4117.948617,4169.230667,4211.281948
4209.743487,4231.281948,4217.435794,4227.692204,4229.743486,4236.922973,4217.435794,4204.102461,4174.871693,4210.769128,4198.974256,4131.794771,4177.948616,4216.922974
4216.922974,4241.538358,4220.512717,4233.33323,4230.256307,4229.743486,4214.358871,4204.615282,4189.743487,4214.358871,4208.205025,4151.28195,4188.717846,4221.538358
4217.948615,4242.563999,4225.128102,4231.794768,4229.743486,4226.666563,4211.794769,4213.846051,4207.692205,4218.974256,4215.897333,4174.871693,4188.205026,4219.999897
4214.358871,4236.410153,4223.58964,4229.743486,4231.794768,4233.84605,4216.922974,4217.435794,4214.871692,4216.410153,4212.82041,4192.82041,4190.769128,4216.922974
4219.999897,4244.615281,4222.563999,4236.922973,4242.563999,4240.512717,4221.538358,4218.974256,4227.179384,4213.846051,4213.846051,4208.717846,4198.974256,4223.07682
4229.230666,4256.922973,4232.307589,4242.051178,4248.205024,4235.897332,4218.974256,4222.051179,4250.769127,4226.666563,4221.025538,4222.051179,4208.717846,4231.794768
4231.281948,4255.897332,4236.410153,4235.897332,4237.948614,4231.281948,4215.384512,4218.974256,4263.076819,4232.307589,4222.051179,4223.07682,4214.871692,4233.33323
4224.615281,4247.692204,4225.640922,4231.281948,4229.743486,4232.307589,4216.922974,4213.33323,4251.281947,4218.461435,4215.384512,4218.974256,4209.230666,4229.230666
4216.922974,4246.153742,4221.538358,4232.820409,4234.358871,4234.871691,4219.999897,4215.384512,4244.615281,4219.487076,4212.307589,4216.410153,4200.512718,4221.025538
4217.435794,4248.717845,4225.640922,4229.743486,4233.84605,4231.794768,4218.461435,4219.999897,4250.256306,4233.33323,4215.384512,4217.948615,4206.666564,4216.922974
4218.461435,4242.563999,4222.563999,4224.102461,4226.153743,4227.692204,4216.922974,4219.999897,4247.692204,4225.640922,4217.948615,4218.974256,4206.666564,4219.999897
4213.33323,4232.307589,4217.948615,4226.153743,4226.666563,4227.692204,4221.025538,4218.974256,4231.794768,4212.82041,4214.358871,4216.410153,4190.769128,4218.974256
4218.974256,4238.974255,4223.58964,4233.33323,4233.33323,4233.84605,4222.563999,4219.999897,4232.307589,4218.461435,4212.307589,4221.025538,4182.564,4218.461435
4235.384512,4253.84605,4233.33323,4238.461435,4236.922973,4231.794768,4217.435794,4217.435794,4245.640922,4222.051179,4218.974256,4232.307589,4179.487077,4231.794768
4238.461435,4249.230665,4234.871691,4235.897332,4234.871691,4227.692204,4214.871692,4214.871692,4246.666563,4217.948615,4216.922974,4234.871691,4171.79477,4235.384512
4229.230666,4236.410153,4230.769127,4230.256307,4231.794768,4227.692204,4215.384512,4217.435794,4232.820409,4215.897333,4204.102461,4229.743486,4165.640924,4218.974256
4228.205025,4237.948614,4232.307589,4231.794768,4232.820409,4232.820409,4215.384512,4218.974256,4232.307589,4212.82041,4204.102461,4228.717845,4163.589642,4212.82041
4231.794768,4245.128101,4232.307589,4233.84605,4234.358871,4228.717845,4214.358871,4217.435794,4239.999896,4213.846051,4214.358871,4231.794768,4170.769129,4225.128102
4224.615281,4235.897332,4224.615281,4227.692204,4231.794768,4225.128102,4212.82041,4220.512717,4237.435794,4216.922974,4208.717846,4230.256307,4169.230667,4227.692204
4205.640923,4215.384512,4216.922974,4217.948615,4229.230666,4227.692204,4212.307589,4220.512717,4210.256307,4212.82041,4188.205026,4222.051179,4143.589642,4208.205025
4202.564,4213.33323,4219.487076,4218.974256,4231.794768,4233.33323,4215.384512,4219.999897,4202.051179,4217.435794,4195.897333,4224.615281,4148.717847,4209.743487
4222.563999,4228.717845,4226.153743,4226.153743,4233.33323,4233.33323,4218.461435,4227.179384,4236.410153,4230.769127,4224.615281,4241.538358,4194.871692,4239.999896
4234.358871,4230.769127,4232.307589,4226.666563,4234.871691,4229.743486,4219.487076,4228.717845,4268.717844,4235.384512,4234.871691,4251.794768,4212.307589,4253.84605
4230.769127,4226.666563,4233.84605,4225.128102,4238.461435,4230.769127,4218.461435,4220.512717,4273.333229,4235.897332,4227.692204,4249.230665,4198.974256,4247.692204
4232.820409,4231.794768,4233.84605,4226.666563,4238.974255,4231.281948,4217.435794,4215.384512,4269.743485,4233.84605,4226.153743,4247.179383,4201.538359,4248.205024
4238.461435,4230.256307,4239.999896,4229.230666,4233.84605,4228.717845,4217.435794,4215.897333,4269.743485,4222.563999,4231.794768,4251.281947,4207.179384,4250.256306
4229.230666,4217.435794,4241.025537,4226.666563,4227.692204,4226.153743,4217.435794,4219.487076,4264.61528,4220.512717,4226.153743,4254.35887,4201.025538,4248.717845
4216.410153,4216.922974,4233.33323,4221.538358,4227.692204,4229.743486,4221.538358,4228.205025,4263.076819,4231.794768,4217.948615,4250.769127,4197.948615,4244.615281
4217.435794,4218.461435,4231.794768,4219.487076,4230.769127,4232.307589,4231.281948,4236.410153,4266.666562,4234.358871,4221.538358,4245.128101,4199.487077,4234.358871
4227.179384,4216.410153,4238.974255,4223.07682,4231.281948,4233.84605,4235.384512,4236.410153,4279.487075,4230.256307,4229.743486,4249.230665,4207.692205,4234.871691
4231.281948,4222.563999,4241.538358,4226.153743,4230.256307,4228.717845,4230.256307,4233.84605,4293.333228,4239.487076,4233.84605,4257.435793,4216.410153,4248.717845
4230.769127,4229.230666,4241.025537,4228.205025,4232.307589,4229.743486,4229.230666,4233.33323,4301.538356,4248.717845,4234.871691,4260.512716,4224.102461,4252.307588
4233.33323,4227.692204,4243.58964,4229.230666,4233.84605,4233.84605,4234.358871,4236.410153,4304.615279,4242.051178,4236.922973,4263.076819,4233.33323,4248.717845
4234.358871,4228.717845,4242.563999,4229.743486,4232.307589,4231.794768,4231.794768,4235.384512,4300.512715,4230.769127,4230.769127,4258.461434,4228.717845,4250.769127
4229.743486,4230.769127,4238.461435,4227.179384,4230.256307,4223.58964,4229.743486,4232.307589,4284.102459,4227.179384,4219.999897,4248.205024,4216.410153,4247.179383
4222.563999,4222.051179,4233.84605,4222.051179,4228.205025,4227.692204,4241.538358,4235.384512,4276.410152,4224.615281,4215.897333,4245.640922,4213.846051,4236.922973
4216.410153,4212.307589,4229.230666,4219.487076,4226.153743,4233.33323,4248.717845,4237.948614,4270.256306,4217.948615,4217.948615,4243.58964,4211.281948,4232.820409
4216.922974,4211.794769,4228.205025,4220.512717,4219.999897,4231.281948,4239.487076,4233.33323,4259.487075,4219.999897,4219.999897,4234.871691,4200.512718,4233.33323
4215.384512,4211.794769,4228.717845,4216.922974,4215.384512,4227.179384,4232.820409,4228.717845,4248.205024,4227.179384,4214.871692,4235.384512,4196.410154,4231.794768
4218.461435,4213.846051,4231.794768,4215.384512,4224.102461,4229.230666,4232.820409,4231.281948,4253.333229,4229.743486,4213.846051,4247.179383,4203.589641,4236.922973
4226.153743,4217.435794,4233.84605,4220.512717,4229.230666,4229.743486,4230.769127,4233.33323,4268.717844,4234.358871,4228.717845,4251.794768,4214.358871,4246.153742
4223.07682,4211.281948,4228.717845,4221.025538,4221.025538,4229.743486,4229.743486,4233.84605,4267.179383,4232.820409,4235.384512,4248.205024,4215.897333,4241.025537
4217.435794,4204.615282,4221.025538,4213.33323,4220.512717,4230.256307,4230.256307,4232.307589,4249.230665,4223.07682,4221.025538,4244.615281,4205.128102,4229.743486
4228.205025,4213.846051,4228.717845,4216.410153,4229.230666,4229.743486,4229.230666,4230.769127,4249.230665,4221.538358,4216.922974,4250.769127,4202.564,4234.871691
4244.10246,4222.051179,4239.487076,4229.743486,4230.769127,4231.794768,4231.794768,4234.358871,4273.333229,4233.33323,4231.281948,4260.512716,4213.33323,4247.692204
4244.10246,4216.922974,4235.384512,4229.230666,4229.743486,4235.384512,4234.358871,4234.871691,4282.051177,4239.999896,4231.794768,4258.461434,4219.487076,4247.179383
4236.410153,4215.384512,4228.717845,4216.922974,4229.230666,4234.871691,4227.179384,4226.666563,4270.769126,4230.256307,4220.512717,4245.640922,4214.871692,4237.948614
4231.794768,4215.384512,4223.07682,4212.307589,4217.948615,4224.615281,4213.846051,4215.384512,4245.640922,4215.384512,4213.33323,4232.820409,4204.102461,4227.692204
4234.358871,4212.307589,4219.999897,4217.435794,4213.846051,4222.051179,4213.846051,4216.410153,4228.717845,4214.871692,4210.769128,4230.256307,4198.974256,4225.640922
4245.128101,4216.410153,4223.58964,4221.025538,4221.538358,4224.615281,4223.07682,4227.692204,4243.076819,4232.307589,4217.435794,4241.025537,4209.230666,4235.384512
4249.230665,4218.461435,4225.640922,4220.512717,4218.461435,4229.230666,4225.128102,4229.743486,4263.589639,4238.974255,4220.512717,4249.230665,4214.871692,4240.512717
4246.153742,4215.897333,4219.999897,4218.461435,4213.846051,4229.230666,4222.051179,4224.102461,4254.35887,4225.640922,4216.922974,4246.666563,4210.256307,4235.384512
4247.692204,4219.487076,4222.051179,4221.538358,4222.563999,4229.743486,4225.640922,4228.205025,4252.307588,4222.563999,4223.07682,4246.666563,4211.794769,4234.358871
4250.769127,4224.615281,4227.692204,4227.692204,4231.794768,4229.743486,4230.256307,4234.358871,4270.256306,4232.820409,4229.230666,4249.743486,4216.922974,4237.435794
4249.230665,4218.974256,4221.025538,4224.615281,4232.307589,4232.820409,4227.692204,4222.051179,4269.743485,4233.84605,4219.999897,4248.205024,4213.33323,4236.922973
4250.769127,4212.82041,4220.512717,4216.922974,4228.717845,4231.281948,4227.179384,4213.33323,4254.871691,4226.666563,4214.871692,4247.692204,4209.230666,4234.871691
4264.10246,4213.33323,4232.820409,4216.410153,4222.563999,4227.179384,4230.256307,4222.563999,4257.948614,4221.538358,4222.051179,4249.743486,4209.230666,4234.871691
4277.435793,4215.897333,4234.871691,4221.025538,4218.461435,4224.615281,4222.563999,4222.051179,4257.435793,4217.435794,4221.025538,4248.717845,4207.692205,4233.84605
4271.281947,4204.102461,4224.102461,4216.410153,4216.922974,4225.640922,4217.435794,4216.922974,4247.692204,4213.33323,4213.33323,4245.128101,4200.512718,4231.281948
4262.051178,4189.743487,4215.897333,4208.717846,4216.410153,4225.128102,4223.58964,4218.461435,4236.410153,4215.384512,4213.33323,4239.487076,4198.461436,4226.666563
4281.025536,4213.33323,4219.487076,4222.051179,4223.58964,4225.640922,4224.102461,4220.512717,4242.563999,4223.07682,4219.487076,4239.999896,4213.846051,4231.794768
4301.538356,4250.256306,4226.666563,4237.948614,4231.794768,4229.743486,4220.512717,4225.128102,4261.538357,4226.153743,4219.999897,4245.640922,4221.538358,4235.384512
4296.410151,4250.256306,4231.281948,4235.897332,4229.743486,4228.717845,4224.615281,4232.307589,4269.743485,4222.051179,4214.871692,4245.128101,4203.589641,4222.563999
4290.769126,4234.871691,4230.256307,4231.281948,4227.692204,4225.640922,4222.563999,4225.128102,4263.076819,4217.435794,4214.358871,4239.487076,4196.410154,4215.384512
4296.410151,4232.820409,4225.640922,4228.205025,4231.281948,4226.666563,4213.33323,4212.307589,4246.666563,4215.897333,4211.794769,4234.358871,4205.128102,4221.025538
4297.435792,4232.820409,4223.58964,4221.025538,4232.307589,4232.820409,4216.410153,4215.897333,4233.84605,4211.794769,4206.666564,4233.33323,4201.538359,4219.999897
4295.897331,4231.794768,4227.692204,4219.487076,4232.307589,4230.256307,4218.461435,4218.974256,4238.461435,4210.769128,4210.769128,4240.512717,4198.461436,4219.487076
4300.512715,4232.820409,4234.871691,4225.640922,4232.307589,4230.256307,4216.410153,4216.922974,4262.563998,4221.025538,4219.487076,4250.769127,4212.307589,4231.281948
4301.025536,4229.230666,4232.307589,4223.58964,4226.153743,4231.794768,4224.102461,4225.128102,4271.281947,4231.794768,4219.487076,4246.666563,4212.82041,4232.307589
4301.025536,4228.717845,4224.102461,4223.07682,4224.615281,4232.307589,4225.640922,4228.205025,4261.538357,4228.717845,4215.384512,4232.820409,4199.999897,4218.974256
4305.1281,4239.999896,4225.128102,4226.666563,4229.743486,4228.205025,4215.897333,4221.538358,4255.384511,4223.07682,4215.897333,4233.84605,4199.487077,4219.999897
4311.281946,4248.205024,4231.794768,4231.794768,4231.794768,4229.743486,4215.897333,4225.640922,4265.128101,4229.743486,4215.384512,4246.153742,4202.564,4229.743486
4314.871689,4242.563999,4233.84605,4231.281948,4231.281948,4232.820409,4227.692204,4233.33323,4278.461434,4235.384512,4218.461435,4250.769127,4202.564,4230.769127
4313.333228,4232.820409,4229.230666,4225.640922,4233.84605,4234.358871,4233.33323,4232.820409,4284.102459,4229.743486,4224.615281,4247.179383,4208.205025,4229.230666
4310.769125,4231.281948,4227.179384,4223.58964,4229.230666,4228.717845,4234.358871,4236.410153,4281.025536,4228.205025,4223.58964,4248.205024,4208.717846,4228.205025
4308.205023,4230.769127,4228.717845,4223.58964,4218.974256,4226.153743,4235.897332,4240.512717,4276.922972,4227.179384,4217.948615,4247.692204,4199.999897,4222.051179
4309.743484,4227.179384,4227.692204,4222.051179,4216.410153,4228.205025,4236.410153,4229.743486,4264.10246,4217.435794,4214.871692,4239.999896,4195.384513,4217.435794
4308.205023,4224.102461,4224.102461,4221.538358,4218.974256,4228.205025,4230.256307,4216.922974,4244.615281,4207.179384,4211.281948,4234.358871,4191.794769,4218.461435
4300.512715,4217.435794,4216.922974,4217.435794,4217.435794,4226.153743,4218.974256,4212.82041,4230.256307,4209.230666,4206.666564,4232.307589,4191.281949,4215.384512
4299.487074,4218.461435,4214.871692,4215.897333,4216.922974,4226.666563,4214.871692,4214.871692,4229.743486,4220.512717,4209.230666,4232.307589,4196.922974,4213.33323
4307.179382,4232.307589,4223.07682,4224.615281,4222.563999,4228.205025,4214.871692,4215.384512,4239.487076,4227.179384,4215.384512,4233.33323,4199.999897,4216.410153
4310.256305,4230.769127,4227.692204,4227.179384,4228.717845,4228.717845,4214.358871,4210.256307,4243.076819,4226.666563,4214.358871,4237.948614,4197.948615,4218.461435
4304.615279,4218.461435,4225.128102,4218.974256,4229.230666,4231.281948,4213.33323,4207.692205,4235.897332,4221.538358,4213.33323,4243.58964,4203.07682,4217.948615
4307.179382,4235.897332,4226.666563,4227.692204,4230.769127,4231.281948,4215.384512,4208.205025,4237.435794,4218.461435,4214.358871,4243.076819,4212.307589,4220.512717
4313.333228,4252.307588,4225.128102,4237.948614,4232.820409,4232.307589,4216.410153,4207.179384,4247.692204,4217.948615,4211.281948,4234.871691,4206.666564,4218.974256
4307.179382,4234.871691,4216.410153,4226.666563,4224.615281,4225.640922,4216.410153,4206.153743,4242.563999,4218.461435,4211.281948,4230.256307,4197.948615,4212.82041
4302.563997,4225.128102,4215.897333,4217.948615,4216.410153,4226.153743,4217.435794,4208.205025,4234.358871,4222.051179,4215.384512,4233.84605,4204.615282,4213.846051
4306.666561,4234.358871,4222.051179,4228.717845,4222.563999,4230.769127,4214.871692,4205.128102,4232.820409,4221.538358,4213.846051,4231.794768,4211.281948,4217.948615
4308.717843,4234.871691,4226.666563,4235.384512,4233.33323,4233.84605,4212.82041,4202.051179,4236.922973,4215.384512,4210.256307,4235.384512,4201.025538,4219.999897
4312.820407,4232.820409,4232.307589,4231.281948,4232.307589,4226.666563,4222.563999,4211.281948,4247.179383,4216.410153,4213.33323,4246.153742,4198.461436,4223.58964
4316.922971,4235.384512,4235.384512,4226.666563,4222.051179,4226.666563,4233.84605,4222.563999,4264.10246,4228.205025,4218.974256,4245.128101,4209.743487,4225.128102
4305.64092,4228.717845,4228.717845,4223.07682,4216.922974,4229.743486,4225.128102,4221.025538,4261.538357,4228.205025,4216.922974,4230.769127,4210.256307,4218.461435
4292.307587,4218.974256,4218.461435,4220.512717,4217.435794,4229.743486,4214.871692,4214.871692,4242.051178,4216.410153,4207.179384,4220.512717,4195.897333,4209.230666
4292.307587,4217.948615,4215.384512,4221.538358,4218.461435,4226.666563,4220.512717,4216.922974,4224.615281,4212.82041,4198.461436,4219.487076,4186.153744,4208.717846
4295.897331,4218.461435,4218.461435,4222.051179,4219.487076,4227.692204,4223.07682,4221.025538,4220.512717,4215.384512,4197.435795,4221.538358,4187.692205,4213.33323
4293.846049,4218.461435,4217.435794,4218.974256,4219.487076,4228.717845,4222.051179,4218.461435,4216.410153,4212.307589,4201.025538,4219.999897,4188.205026,4213.846051
4292.820408,4221.025538,4215.897333,4221.025538,4219.487076,4226.666563,4224.102461,4217.435794,4213.33323,4209.743487,4205.640923,4219.487076,4184.615282,4213.33323
4290.256305,4221.025538,4216.410153,4224.102461,4222.563999,4225.640922,4225.640922,4219.999897,4216.922974,4213.846051,4204.615282,4224.102461,4184.102462,4215.384512
4283.589639,4216.922974,4216.922974,4219.999897,4224.102461,4228.205025,4224.102461,4219.999897,4218.461435,4215.897333,4199.487077,4227.179384,4182.564,4213.846051
4278.974254,4215.897333,4216.922974,4218.974256,4219.487076,4229.743486,4223.07682,4216.922974,4216.922974,4214.871692,4205.128102,4227.179384,4183.589641,4210.769128
4279.999895,4218.461435,4216.922974,4223.07682,4214.871692,4224.615281,4218.461435,4214.358871,4216.410153,4214.358871,4216.410153,4230.256307,4193.846051,4217.435794
4279.487075,4222.563999,4221.538358,4224.615281,4214.871692,4223.58964,4212.82041,4213.846051,4216.922974,4214.358871,4214.871692,4233.33323,4202.051179,4220.512717
4279.999895,4230.769127,4226.666563,4228.205025,4216.922974,4226.666563,4213.846051,4216.410153,4222.051179,4215.897333,4211.794769,4228.717845,4200.512718,4216.922974
4279.487075,4234.871691,4223.58964,4233.33323,4219.487076,4229.743486,4216.410153,4218.974256,4232.307589,4218.974256,4212.82041,4224.102461,4199.999897,4215.384512
4269.230665,4230.769127,4213.33323,4228.205025,4218.461435,4225.640922,4210.769128,4212.82041,4225.640922,4219.999897,4209.230666,4230.256307,4203.07682,4214.358871
4258.974255,4226.153743,4215.384512,4222.051179,4215.897333,4227.179384,4202.051179,4202.564,4210.256307,4214.358871,4207.179384,4233.84605,4204.102461,4213.846051
4256.410152,4224.615281,4223.07682,4224.615281,4216.410153,4226.153743,4208.205025,4201.025538,4202.564,4206.153743,4211.794769,4228.717845,4196.922974,4221.025538
4251.794768,4222.051179,4224.102461,4224.102461,4217.435794,4225.128102,4218.461435,4204.102461,4205.128102,4201.025538,4210.256307,4235.384512,4184.615282,4226.153743
4250.769127,4219.487076,4222.563999,4223.58964,4215.897333,4223.07682,4208.205025,4201.538359,4197.948615,4196.410154,4205.128102,4229.230666,4179.999898,4223.07682
4271.794767,4229.743486,4235.384512,4230.769127,4214.358871,4225.128102,4201.538359,4200.512718,4194.871692,4194.358872,4212.307589,4182.05118,4195.897333,4238.461435
4301.025536,4246.153742,4251.281947,4236.410153,4213.846051,4225.128102,4209.230666,4205.128102,4210.256307,4197.435795,4222.051179,4144.615283,4213.846051,4272.820408
4321.025535,4245.640922,4253.333229,4232.307589,4205.128102,4223.58964,4208.205025,4203.589641,4224.615281,4197.948615,4214.871692,4150.769129,4213.846051,4291.794767
4355.384509,4249.743486,4258.461434,4234.358871,4197.948615,4221.538358,4205.128102,4201.538359,4233.84605,4196.410154,4217.435794,4171.281949,4226.153743,4311.794766
4399.487072,4276.410152,4271.794767,4249.230665,4209.230666,4222.563999,4211.281948,4206.666564,4271.281947,4199.999897,4239.999896,4184.102462,4255.897332,4348.205022
4408.20502,4285.1281,4269.743485,4250.256306,4214.358871,4224.102461,4213.33323,4206.666564,4303.076818,4196.922974,4245.640922,4188.205026,4262.051178,4356.92297
4383.076816,4267.692203,4259.487075,4236.922973,4202.051179,4224.102461,4212.307589,4202.051179,4295.38451,4190.256308,4231.794768,4185.128103,4246.153742,4334.358868
4368.205021,4263.589639,4261.538357,4237.948614,4202.564,4224.102461,4213.846051,4199.999897,4284.61528,4196.922974,4228.205025,4192.30759,4241.025537,4322.563997
4366.153739,4270.769126,4267.179383,4247.692204,4215.384512,4222.563999,4209.230666,4198.974256,4292.820408,4206.666564,4235.897332,4211.794769,4251.281947,4321.538356
4351.281945,4266.666562,4264.10246,4241.025537,4215.897333,4223.58964,4206.153743,4206.153743,4307.179382,4214.871692,4242.051178,4220.512717,4262.051178,4313.333228
4322.563997,4250.769127,4258.461434,4231.281948,4212.307589,4226.153743,4213.846051,4213.846051,4307.179382,4219.487076,4238.974255,4216.922974,4255.897332,4296.922972
4297.948613,4236.410153,4249.743486,4231.281948,4216.410153,4227.692204,4217.948615,4207.692205,4287.692203,4217.948615,4230.769127,4215.897333,4235.384512,4279.487075
4283.589639,4232.820409,4246.153742,4234.358871,4216.922974,4223.58964,4210.769128,4197.948615,4265.128101,4215.897333,4227.179384,4215.897333,4229.743486,4267.692203
4271.794767,4230.256307,4249.230665,4232.820409,4214.871692,4224.615281,4204.102461,4200.512718,4252.307588,4212.82041,4231.794768,4209.230666,4233.33323,4258.974255
4259.999896,4221.025538,4246.153742,4226.666563,4214.358871,4225.128102,4209.230666,4208.205025,4239.487076,4208.717846,4229.743486,4202.564,4223.07682,4251.794768
4250.256306,4214.358871,4237.948614,4224.102461,4214.871692,4228.205025,4218.974256,4212.307589,4228.205025,4211.794769,4219.487076,4194.358872,4213.846051,4243.58964
4240.512717,4213.846051,4235.384512,4228.205025,4215.384512,4227.179384,4216.410153,4206.666564,4215.897333,4217.435794,4213.846051,4186.666564,4213.846051,4233.33323
4237.435794,4216.410153,4239.487076,4230.256307,4214.358871,4225.640922,4208.205025,4204.102461,4214.871692,4224.615281,4223.07682,4195.897333,4216.922974,4236.410153
4243.076819,4223.58964,4242.563999,4230.256307,4221.538358,4228.205025,4210.256307,4213.846051,4231.794768,4231.794768,4233.84605,4212.82041,4221.025538,4248.717845
4241.538358,4227.179384,4242.563999,4234.871691,4232.820409,4235.897332,4218.461435,4221.538358,4246.666563,4231.794768,4230.256307,4213.846051,4226.153743,4240.512717
4233.33323,4221.025538,4239.999896,4232.307589,4228.205025,4231.281948,4218.461435,4217.948615,4240.512717,4229.230666,4228.205025,4211.281948,4229.743486,4228.717845
4231.281948,4215.384512,4236.922973,4224.615281,4215.897333,4227.179384,4215.384512,4214.871692,4231.281948,4223.07682,4229.230666,4215.384512,4225.128102,4228.717845
4230.256307,4215.384512,4233.33323,4225.640922,4216.922974,4231.281948,4220.512717,4215.384512,4223.58964,4216.922974,4223.58964,4214.358871,4216.922974,4222.563999
4225.128102,4216.922974,4228.717845,4229.230666,4222.051179,4233.33323,4222.563999,4215.897333,4218.461435,4222.563999,4215.897333,4212.307589,4213.846051,4213.33323
4218.461435,4214.871692,4226.153743,4224.615281,4219.999897,4230.256307,4218.461435,4216.410153,4210.769128,4224.615281,4216.922974,4212.82041,4213.846051,4214.358871
4218.974256,4211.794769,4226.666563,4221.025538,4216.922974,4229.230666,4222.563999,4220.512717,4207.179384,4221.025538,4222.563999,4216.410153,4215.897333,4216.410153
4222.563999,4213.33323,4227.179384,4225.128102,4217.435794,4228.717845,4230.256307,4223.58964,4217.435794,4224.615281,4221.538358,4217.948615,4218.461435,4216.922974
4221.025538,4215.384512,4231.281948,4225.128102,4224.615281,4226.666563,4229.230666,4220.512717,4222.051179,4227.692204,4218.461435,4217.948615,4217.948615,4217.948615
4222.563999,4216.410153,4234.871691,4226.153743,4228.717845,4227.179384,4224.615281,4216.922974,4215.897333,4224.102461,4218.974256,4225.128102,4214.358871,4217.948615
4225.640922,4215.384512,4233.84605,4228.205025,4219.487076,4226.666563,4223.58964,4212.307589,4210.256307,4220.512717,4219.487076,4231.281948,4209.230666,4217.435794
4221.538358,4210.769128,4228.717845,4222.051179,4212.307589,4228.717845,4221.538358,4207.179384,4202.564,4216.922974,4215.897333,4224.615281,4205.128102,4214.871692
4214.358871,4208.205025,4224.102461,4220.512717,4216.410153,4225.640922,4221.025538,4211.794769,4189.743487,4213.33323,4212.307589,4216.410153,4207.692205,4209.230666
4209.743487,4209.230666,4219.999897,4221.538358,4216.410153,4224.615281,4219.999897,4217.435794,4188.717846,4217.948615,4215.897333,4217.948615,4211.281948,4204.615282
4202.564,4202.564,4211.281948,4215.897333,4211.281948,4227.179384,4215.897333,4205.640923,4176.922975,4217.435794,4211.794769,4213.33323,4204.615282,4199.999897
4196.922974,4196.410154,4207.179384,4211.281948,4213.846051,4228.717845,4213.33323,4192.30759,4152.307591,4204.102461,4199.487077,4204.102461,4196.410154,4195.897333
4205.128102,4205.640923,4215.384512,4215.897333,4215.384512,4223.58964,4219.487076,4205.640923,4154.871693,4206.153743,4204.102461,4210.769128,4206.666564,4200.512718
4215.384512,4216.410153,4221.538358,4221.025538,4213.846051,4224.102461,4231.281948,4230.256307,4191.794769,4228.717845,4220.512717,4226.666563,4219.999897,4208.205025
4213.33323,4214.871692,4218.974256,4219.487076,4223.07682,4223.07682,4231.281948,4230.256307,4208.717846,4236.922973,4219.487076,4231.281948,4216.410153,4210.256307
4213.33323,4213.846051,4227.179384,4221.025538,4233.84605,4222.563999,4223.58964,4218.974256,4209.743487,4230.256307,4217.948615,4229.743486,4218.974256,4211.794769
4225.640922,4218.974256,4236.922973,4225.640922,4229.743486,4221.538358,4217.948615,4213.33323,4219.487076,4233.33323,4230.256307,4237.435794,4235.897332,4217.948615
4229.230666,4221.025538,4229.743486,4224.615281,4225.128102,4216.922974,4207.692205,4197.948615,4215.384512,4226.153743,4227.179384,4241.025537,4229.743486,4218.974256
4217.948615,4213.846051,4223.58964,4216.410153,4230.256307,4212.307589,4199.999897,4185.128103,4191.281949,4211.794769,4214.358871,4232.307589,4212.82041,4213.846051
4216.410153,4205.640923,4227.692204,4215.384512,4224.102461,4214.871692,4209.743487,4201.025538,4192.30759,4222.051179,4217.948615,4231.281948,4224.615281,4211.794769
4219.487076,4206.153743,4224.615281,4217.948615,4213.33323,4224.615281,4221.538358,4224.102461,4214.358871,4236.410153,4222.051179,4235.897332,4232.820409,4213.33323
4216.410153,4211.281948,4217.948615,4217.435794,4219.487076,4235.897332,4217.435794,4225.128102,4221.538358,4229.743486,4215.897333,4228.717845,4217.948615,4214.871692
4219.999897,4212.307589,4221.025538,4222.563999,4230.256307,4242.563999,4214.871692,4218.974256,4222.563999,4223.07682,4218.974256,4227.692204,4219.487076,4215.384512
4230.769127,4217.948615,4231.281948,4231.281948,4232.820409,4241.538358,4221.025538,4219.999897,4236.922973,4232.820409,4230.256307,4238.974255,4235.384512,4217.948615
4233.33323,4228.717845,4235.384512,4231.794768,4232.307589,4239.487076,4218.461435,4212.307589,4247.692204,4238.461435,4231.281948,4239.487076,4235.384512,4218.974256
4231.281948,4231.281948,4230.256307,4227.692204,4228.205025,4232.820409,4213.846051,4199.999897,4242.051178,4233.84605,4230.256307,4235.897332,4230.769127,4218.974256
4233.33323,4225.128102,4226.666563,4229.230666,4224.102461,4231.281948,4215.384512,4205.128102,4237.948614,4232.307589,4230.769127,4236.922973,4233.33323,4218.974256
4228.205025,4217.948615,4225.128102,4228.717845,4224.102461,4233.33323,4215.897333,4213.33323,4233.84605,4229.743486,4224.102461,4235.897332,4228.205025,4213.33323
4220.512717,4216.410153,4222.563999,4222.051179,4222.051179,4233.33323,4215.897333,4206.153743,4217.435794,4218.461435,4212.82041,4231.794768,4216.410153,4208.205025
4223.58964,4217.435794,4219.487076,4217.948615,4217.948615,4226.666563,4212.82041,4197.948615,4199.487077,4211.794769,4212.82041,4229.743486,4213.33323,4212.307589
4229.230666,4215.384512,4221.025538,4224.615281,4219.999897,4227.179384,4208.205025,4198.974256,4204.615282,4219.999897,4223.58964,4229.743486,4224.102461,4217.948615
4231.794768,4218.974256,4227.179384,4230.769127,4221.538358,4226.153743,4210.769128,4206.153743,4222.051179,4232.307589,4231.281948,4232.307589,4234.871691,4219.487076
4231.281948,4222.563999,4226.666563,4224.102461,4218.974256,4225.640922,4218.974256,4216.410153,4229.230666,4232.307589,4225.128102,4236.410153,4225.640922,4215.897333
4222.563999,4211.794769,4216.922974,4215.384512,4217.948615,4223.07682,4217.435794,4215.384512,4212.307589,4221.538358,4217.948615,4232.820409,4215.897333,4214.871692
4216.410153,4202.051179,4215.384512,4216.922974,4211.794769,4221.538358,4214.871692,4210.256307,4197.435795,4213.846051,4216.410153,4229.230666,4218.461435,4216.410153
4213.846051,4193.333231,4218.974256,4214.358871,4203.589641,4222.563999,4222.051179,4214.358871,4192.30759,4213.33323,4203.589641,4229.230666,4201.025538,4203.07682
4211.794769,4182.564,4219.999897,4207.179384,4207.179384,4228.717845,4225.640922,4217.948615,4192.30759,4221.538358,4202.051179,4231.281948,4195.384513,4194.358872
4219.999897,4190.256308,4221.025538,4211.281948,4216.410153,4230.256307,4219.999897,4216.922974,4206.666564,4233.84605,4225.640922,4233.33323,4232.307589,4213.846051
4233.84605,4203.07682,4222.563999,4221.025538,4219.487076,4227.692204,4215.897333,4216.922974,4228.205025,4237.948614,4238.974255,4234.871691,4259.487075,4233.33323
4231.281948,4190.769128,4219.999897,4215.897333,4217.435794,4228.717845,4220.512717,4214.871692,4231.794768,4233.33323,4237.948614,4239.999896,4253.84605,4232.307589
4220.512717,4177.948616,4219.487076,4206.666564,4217.948615,4228.717845,4224.615281,4213.33323,4224.102461,4234.358871,4244.10246,4241.538358,4253.333229,4228.205025
4219.999897,4183.589641,4219.487076,4208.205025,4213.846051,4227.179384,4226.153743,4215.897333,4226.666563,4236.922973,4247.692204,4237.948614,4259.999896,4225.640922
4218.461435,4183.076821,4213.846051,4209.743487,4203.589641,4225.640922,4225.128102,4213.33323,4223.07682,4234.871691,4234.871691,4231.794768,4252.820409,4218.461435
4214.871692,4178.461436,4211.281948,4208.717846,4206.666564,4226.153743,4218.974256,4210.256307,4216.410153,4238.461435,4231.281948,4231.281948,4246.666563,4214.358871
4223.07682,4185.128103,4216.410153,4213.33323,4218.974256,4226.666563,4222.051179,4222.563999,4230.769127,4248.717845,4242.563999,4239.999896,4247.692204,4221.025538
4232.820409,4193.846051,4223.07682,4218.461435,4219.999897,4231.794768,4233.33323,4235.897332,4255.897332,4257.948614,4250.769127,4250.256306,4251.794768,4230.256307
4235.384512,4198.461436,4228.717845,4218.461435,4214.871692,4229.230666,4232.307589,4231.794768,4265.640921,4256.410152,4250.769127,4254.871691,4259.487075,4234.358871
4242.051178,4199.487077,4233.84605,4218.974256,4220.512717,4226.666563,4226.153743,4226.153743,4273.846049,4248.205024,4251.281947,4258.974255,4263.076819,4234.871691
4246.666563,4203.07682,4231.794768,4219.487076,4224.102461,4227.179384,4229.743486,4230.769127,4277.948613,4247.179383,4251.281947,4262.563998,4257.948614,4234.358871
4234.871691,4200.512718,4223.58964,4216.410153,4216.410153,4229.743486,4238.974255,4233.33323,4269.743485,4247.692204,4244.615281,4253.84605,4246.666563,4229.230666
4228.205025,4190.769128,4223.07682,4213.846051,4213.33323,4226.666563,4243.076819,4232.307589,4258.974255,4240.512717,4241.538358,4246.666563,4249.230665,4220.512717
4235.897332,4185.128103,4228.205025,4215.384512,4217.435794,4226.666563,4242.051178,4233.84605,4256.922973,4233.33323,4242.563999,4250.256306,4257.948614,4219.487076
4234.871691,4185.640923,4222.051179,4213.33323,4213.846051,4224.615281,4238.974255,4229.743486,4247.179383,4228.205025,4236.410153,4249.743486,4250.769127,4222.563999
4228.717845,4181.025539,4215.384512,4207.179384,4206.666564,4223.58964,4238.461435,4219.999897,4232.307589,4222.051179,4228.205025,4246.153742,4242.563999,4220.512717
4233.33323,4178.974257,4218.974256,4205.640923,4210.256307,4227.179384,4233.84605,4215.384512,4224.615281,4224.615281,4228.205025,4245.640922,4246.153742,4213.846051
4245.640922,4193.333231,4224.102461,4216.410153,4220.512717,4229.743486,4227.692204,4216.410153,4237.435794,4237.435794,4238.974255,4246.666563,4248.717845,4217.435794
4251.794768,4206.153743,4226.153743,4224.615281,4221.538358,4225.128102,4228.205025,4221.025538,4258.461434,4248.717845,4247.179383,4251.281947,4248.205024,4227.179384
4247.179383,4202.564,4228.717845,4222.051179,4219.999897,4225.640922,4231.281948,4226.153743,4266.153742,4250.256306,4247.692204,4258.974255,4248.205024,4229.230666
4251.794768,4206.153743,4232.307589,4225.640922,4227.692204,4232.307589,4229.743486,4230.256307,4273.333229,4248.205024,4249.743486,4262.563998,4247.692204,4230.769127
4259.999896,4217.948615,4234.358871,4231.281948,4229.743486,4228.717845,4229.230666,4229.230666,4288.717844,4254.35887,4252.307588,4264.10246,4250.256306,4233.84605
4254.871691,4215.897333,4231.281948,4227.179384,4225.640922,4224.615281,4230.256307,4223.58964,4288.205023,4257.948614,4250.256306,4263.076819,4255.897332,4232.307589
4253.84605,4211.281948,4230.769127,4226.666563,4225.128102,4229.743486,4229.743486,4218.461435,4279.487075,4250.769127,4248.205024,4257.948614,4261.538357,4230.769127
4263.589639,4217.948615,4232.820409,4232.307589,4230.769127,4232.307589,4228.717845,4219.487076,4283.076818,4249.230665,4249.743486,4254.871691,4262.051178,4230.769127
4261.025537,4216.922974,4231.281948,4229.230666,4232.820409,4224.102461,4225.128102,4217.435794,4276.410152,4249.230665,4249.230665,4255.384511,4252.820409,4229.230666
4254.35887,4213.33323,4230.769127,4226.153743,4226.666563,4226.666563,4225.640922,4214.358871,4271.281947,4246.666563,4248.205024,4258.974255,4245.128101,4229.230666
4259.999896,4219.487076,4234.358871,4230.256307,4221.538358,4228.717845,4233.33323,4223.58964,4287.179382,4251.281947,4249.230665,4263.076819,4249.743486,4234.358871
4256.922973,4215.384512,4231.281948,4226.666563,4219.487076,4228.717845,4234.358871,4229.743486,4293.846049,4252.307588,4250.256306,4256.922973,4252.307588,4233.33323
4245.128101,4201.025538,4222.051179,4219.487076,4219.487076,4228.205025,4225.128102,4216.922974,4266.666562,4242.563999,4244.10246,4246.153742,4245.640922,4219.999897
4244.615281,4197.948615,4221.538358,4221.538358,4218.461435,4230.769127,4225.640922,4214.358871,4254.871691,4243.076819,4236.922973,4245.640922,4245.128101,4214.871692
4247.692204,4199.999897,4221.538358,4221.538358,4218.461435,4226.153743,4233.84605,4228.717845,4262.051178,4251.281947,4237.948614,4246.153742,4248.717845,4224.102461
4251.794768,4205.640923,4222.051179,4221.538358,4218.461435,4223.07682,4228.205025,4227.692204,4261.025537,4244.615281,4237.948614,4243.58964,4249.743486,4231.794768
4252.820409,4202.051179,4225.640922,4224.102461,4215.897333,4225.640922,4222.563999,4215.384512,4252.820409,4233.33323,4233.33323,4247.179383,4253.84605,4227.692204
4242.051178,4181.538359,4224.102461,4219.999897,4217.948615,4231.281948,4229.230666,4215.897333,4242.051178,4226.666563,4232.820409,4244.615281,4241.538358,4218.461435
4242.051178,4188.205026,4219.999897,4219.999897,4218.461435,4228.717845,4227.179384,4218.461435,4224.102461,4225.128102,4229.230666,4235.384512,4219.999897,4215.897333
4264.10246,4231.281948,4222.563999,4230.769127,4217.435794,4227.692204,4223.07682,4215.384512,4224.615281,4225.640922,4220.512717,4233.33323,4217.435794,4219.999897
4277.435793,4251.281947,4227.179384,4237.948614,4216.922974,4232.307589,4229.743486,4213.846051,4236.922973,4222.051179,4213.846051,4233.84605,4215.897333,4219.999897
4275.384511,4244.615281,4225.128102,4238.974255,4217.435794,4231.281948,4229.230666,4214.358871,4230.256307,4216.410153,4210.256307,4229.230666,4198.461436,4213.846051
4277.948613,4249.230665,4224.615281,4238.461435,4225.128102,4225.640922,4221.538358,4215.897333,4225.128102,4218.461435,4210.769128,4230.256307,4195.384513,4212.307589
4279.999895,4250.769127,4229.230666,4235.897332,4231.281948,4226.666563,4222.051179,4216.922974,4237.948614,4222.563999,4216.410153,4236.410153,4204.615282,4215.897333
4269.743485,4237.948614,4223.07682,4230.256307,4221.025538,4228.717845,4223.07682,4210.769128,4233.84605,4214.871692,4218.974256,4235.384512,4202.564,4218.974256
4266.153742,4234.871691,4217.948615,4230.769127,4215.897333,4225.128102,4219.487076,4210.769128,4218.974256,4210.769128,4218.461435,4233.84605,4199.999897,4217.435794
4264.61528,4234.871691,4219.999897,4232.820409,4226.153743,4229.743486,4219.487076,4214.358871,4216.922974,4213.33323,4212.82041,4231.281948,4195.384513,4207.179384
4252.820409,4230.256307,4214.358871,4228.717845,4226.153743,4230.769127,4215.897333,4206.666564,4199.487077,4211.281948,4201.025538,4218.974256,4183.076821,4197.435795
4242.051178,4229.230666,4207.692205,4225.128102,4214.358871,4225.640922,4210.256307,4203.589641,4181.025539,4206.666564,4198.974256,4211.794769,4182.05118,4197.948615
4239.487076,4230.256307,4209.230666,4226.153743,4211.281948,4220.512717,4212.307589,4213.33323,4181.538359,4206.153743,4204.615282,4214.871692,4188.205026,4198.974256
4233.84605,4227.692204,4209.230666,4228.717845,4211.794769,4224.615281,4215.897333,4215.897333,4182.564,4207.179384,4205.128102,4215.897333,4186.666564,4195.897333
4230.769127,4229.743486,4209.743487,4228.717845,4212.82041,4224.615281,4221.025538,4213.33323,4176.922975,4204.615282,4204.102461,4214.358871,4185.640923,4196.922974
4231.794768,4230.256307,4215.897333,4225.640922,4216.410153,4225.128102,4231.281948,4216.410153,4176.410154,4197.948615,4199.999897,4215.897333,4184.102462,4196.410154
4229.230666,4223.07682,4215.897333,4223.58964,4215.897333,4226.153743,4234.358871,4220.512717,4167.179385,4193.846051,4195.897333,4213.33323,4180.512718,4193.333231
4228.717845,4223.58964,4214.358871,4227.692204,4216.410153,4231.794768,4234.358871,4224.102461,4172.820411,4204.102461,4199.999897,4211.794769,4181.538359,4195.897333
4230.769127,4230.256307,4215.897333,4231.794768,4218.461435,4230.256307,4233.84605,4223.58964,4190.256308,4216.410153,4205.640923,4214.871692,4185.128103,4201.025538
4228.205025,4229.743486,4215.384512,4229.743486,4216.922974,4227.692204,4227.179384,4215.384512,4187.692205,4216.922974,4208.205025,4213.33323,4187.692205,4201.538359
4229.230666,4232.820409,4216.410153,4229.743486,4224.102461,4231.794768,4223.58964,4213.33323,4185.640923,4217.948615,4212.82041,4213.33323,4194.871692,4201.538359
4230.769127,4234.871691,4219.487076,4231.794768,4234.871691,4234.871691,4227.179384,4217.435794,4206.153743,4222.051179,4216.922974,4223.07682,4201.538359,4204.102461
4231.794768,4228.717845,4224.615281,4231.281948,4230.769127,4229.230666,4226.666563,4217.435794,4215.897333,4222.051179,4214.358871,4231.281948,4203.07682,4208.717846
4243.076819,4234.871691,4234.871691,4233.33323,4219.999897,4226.666563,4223.07682,4216.922974,4214.358871,4221.538358,4212.307589,4231.281948,4201.538359,4213.846051
4250.769127,4245.128101,4237.948614,4234.871691,4217.948615,4230.256307,4222.563999,4217.435794,4221.538358,4225.128102,4214.871692,4232.820409,4206.153743,4215.384512
4239.999896,4239.487076,4230.769127,4233.84605,4220.512717,4228.717845,4223.07682,4217.435794,4225.640922,4222.563999,4217.948615,4235.897332,4211.794769,4211.281948
4232.307589,4229.230666,4225.128102,4231.794768,4217.948615,4227.179384,4219.487076,4214.358871,4216.922974,4214.871692,4217.435794,4232.820409,4206.153743,4209.230666
4242.051178,4234.358871,4229.743486,4233.33323,4217.435794,4226.153743,4215.897333,4211.281948,4212.82041,4219.487076,4215.384512,4230.769127,4198.974256,4212.307589
4249.230665,4243.58964,4236.410153,4234.358871,4223.58964,4227.179384,4218.974256,4215.384512,4229.743486,4234.358871,4219.999897,4235.384512,4203.07682,4219.999897
4237.948614,4236.410153,4229.230666,4230.769127,4226.666563,4224.102461,4218.974256,4218.974256,4232.307589,4233.33323,4217.948615,4232.307589,4204.102461,4215.384512
4228.717845,4228.205025,4219.487076,4228.717845,4221.538358,4228.205025,4216.922974,4214.358871,4213.846051,4215.897333,4211.281948,4225.640922,4196.922974,4201.025538
4231.281948,4232.307589,4220.512717,4230.769127,4217.435794,4231.281948,4219.999897,4211.794769,4206.153743,4212.82041,4212.307589,4225.128102,4194.358872,4204.615282
4235.384512,4232.820409,4222.563999,4231.281948,4217.435794,4230.256307,4221.538358,4215.384512,4217.948615,4225.640922,4216.922974,4229.743486,4198.461436,4213.33323
4235.384512,4225.640922,4220.512717,4227.692204,4214.871692,4226.153743,4221.025538,4216.922974,4215.384512,4225.640922,4215.897333,4228.717845,4201.538359,4206.153743
4234.871691,4229.230666,4219.999897,4231.281948,4212.82041,4231.281948,4229.743486,4214.871692,4206.666564,4214.871692,4213.33323,4224.615281,4196.922974,4199.487077
4234.358871,4232.820409,4216.410153,4233.33323,4215.897333,4233.84605,4232.820409,4214.871692,4203.07682,4212.82041,4211.794769,4222.051179,4191.281949,4205.128102
4227.692204,4214.871692,4213.846051,4223.58964,4213.33323,4231.281948,4229.230666,4219.999897,4202.051179,4216.410153,4211.281948,4221.538358,4192.82041,4203.589641
4233.84605,4213.846051,4222.051179,4221.025538,4211.794769,4226.153743,4229.230666,4219.999897,4204.102461,4218.974256,4214.871692,4226.153743,4200.512718,4203.07682
4252.307588,4237.948614,4230.256307,4233.84605,4216.410153,4224.615281,4226.666563,4215.897333,4215.384512,4220.512717,4219.487076,4230.256307,4211.794769,4215.897333
4256.922973,4244.10246,4229.743486,4233.33323,4210.256307,4226.666563,4227.179384,4220.512717,4225.640922,4226.153743,4219.999897,4229.743486,4209.743487,4215.897333
4246.666563,4229.743486,4226.153743,4220.512717,4198.974256,4228.717845,4228.205025,4224.615281,4223.07682,4226.153743,4214.358871,4229.230666,4190.769128,4203.07682
4242.563999,4226.666563,4224.615281,4219.999897,4207.179384,4225.640922,4222.563999,4217.948615,4215.384512,4220.512717,4215.384512,4231.794768,4186.666564,4205.640923
4251.281947,4232.820409,4226.666563,4225.128102,4219.999897,4225.640922,4226.153743,4216.922974,4225.128102,4222.051179,4225.128102,4235.897332,4204.102461,4219.487076
4248.205024,4233.33323,4227.179384,4224.615281,4218.461435,4228.205025,4231.281948,4219.999897,4231.794768,4226.666563,4219.999897,4233.84605,4202.564,4214.358871
4234.358871,4231.794768,4223.58964,4224.615281,4218.461435,4225.640922,4218.461435,4214.358871,4213.33323,4219.487076,4206.666564,4228.205025,4189.743487,4199.999897
4236.410153,4230.769127,4224.615281,4225.640922,4221.025538,4225.128102,4209.743487,4212.307589,4203.589641,4213.33323,4211.794769,4227.179384,4194.358872,4205.128102
4244.615281,4230.769127,4227.179384,4223.58964,4217.948615,4225.640922,4213.846051,4215.897333,4213.846051,4220.512717,4221.025538,4232.307589,4199.999897,4216.922974
4238.461435,4230.769127,4225.640922,4223.07682,4217.948615,4230.256307,4218.461435,4215.897333,4221.538358,4221.538358,4217.948615,4234.358871,4198.974256,4215.384512
4234.358871,4232.307589,4226.153743,4225.128102,4221.538358,4229.743486,4221.538358,4217.948615,4223.58964,4215.384512,4218.461435,4234.358871,4203.07682,4210.256307
4247.179383,4237.948614,4231.281948,4229.230666,4217.948615,4230.256307,4222.051179,4218.974256,4230.769127,4222.563999,4221.538358,4235.384512,4207.692205,4216.410153
4249.743486,4237.948614,4229.743486,4229.743486,4214.871692,4231.794768,4226.153743,4216.922974,4235.384512,4231.794768,4218.461435,4235.897332,4211.281948,4217.948615
4238.461435,4233.33323,4224.102461,4228.205025,4216.922974,4232.307589,4233.84605,4216.410153,4237.435794,4225.128102,4216.922974,4236.922973,4212.82041,4208.717846
4233.33323,4233.84605,4223.07682,4228.717845,4215.384512,4223.58964,4230.256307,4216.410153,4227.179384,4214.358871,4214.871692,4229.230666,4211.281948,4201.538359
4233.33323,4234.871691,4219.999897,4226.153743,4216.922974,4222.563999,4224.102461,4216.410153,4216.922974,4215.897333,4212.82041,4218.974256,4207.692205,4203.07682
4233.84605,4232.820409,4215.384512,4225.640922,4230.256307,4230.256307,4226.666563,4219.999897,4219.999897,4221.538358,4214.871692,4223.07682,4203.07682,4208.205025
4231.281948,4233.33323,4215.384512,4226.666563,4234.871691,4233.84605,4223.58964,4216.410153,4218.974256,4221.025538,4216.922974,4201.538359,4209.230666,4207.692205
4230.256307,4232.307589,4215.897333,4222.563999,4218.974256,4224.615281,4215.384512,4206.153743,4193.333231,4215.384512,4214.358871,4134.358873,4216.922974,4202.564
4226.666563,4226.666563,4212.82041,4217.435794,4211.794769,4225.128102,4215.897333,4203.589641,4170.769129,4210.769128,4210.769128,4096.410156,4208.205025,4199.487077
4225.128102,4226.666563,4211.794769,4221.025538,4223.58964,4230.769127,4217.948615,4204.102461,4170.256308,4213.33323,4211.281948,4115.897335,4199.999897,4204.102461
4238.461435,4236.922973,4219.999897,4229.743486,4229.230666,4228.205025,4214.871692,4204.102461,4186.666564,4219.999897,4222.563999,4137.948617,4214.358871,4214.358871
4251.794768,4246.666563,4228.205025,4232.820409,4227.692204,4226.153743,4217.948615,4211.281948,4206.153743,4224.615281,4230.256307,4147.179386,4222.051179,4220.512717
4249.743486,4247.179383,4230.769127,4232.820409,4230.769127,4230.256307,4226.153743,4215.384512,4215.384512,4227.692204,4221.025538,4159.487078,4208.205025,4218.974256
4248.205024,4242.563999,4232.820409,4232.820409,4230.769127,4231.281948,4222.563999,4211.794769,4217.948615,4225.128102,4217.435794,4169.230667,4199.487077,4216.410153
4248.717845,4242.563999,4233.84605,4232.820409,4225.128102,4224.615281,4214.871692,4213.33323,4223.58964,4223.58964,4228.205025,4178.974257,4203.07682,4218.461435
4235.897332,4239.999896,4229.230666,4228.717845,4226.153743,4227.692204,4216.922974,4217.948615,4226.666563,4229.230666,4229.230666,4189.230667,4207.179384,4215.384512
4226.666563,4236.410153,4223.07682,4229.743486,4231.281948,4232.307589,4218.974256,4214.871692,4222.051179,4229.230666,4224.102461,4197.948615,4213.33323,4214.358871
4234.871691,4239.487076,4224.102461,4233.33323,4233.33323,4231.794768,4214.871692,4213.846051,4226.666563,4220.512717,4225.640922,4210.256307,4215.897333,4218.974256
4226.666563,4233.33323,4223.58964,4224.615281,4229.743486,4226.153743,4213.846051,4216.922974,4217.948615,4214.871692,4215.384512,4218.461435,4199.487077,4207.179384
4214.358871,4219.999897,4219.999897,4218.461435,4223.58964,4227.692204,4215.384512,4215.384512,4199.999897,4213.846051,4208.205025,4220.512717,4191.794769,4197.948615
4231.794768,4230.256307,4222.051179,4227.692204,4224.615281,4229.230666,4214.358871,4213.33323,4205.640923,4213.846051,4224.615281,4227.179384,4210.769128,4218.461435
4252.820409,4248.205024,4230.256307,4237.435794,4231.281948,4228.717845,4219.487076,4215.384512,4234.358871,4224.102461,4235.384512,4235.897332,4226.666563,4237.948614
4250.769127,4240.512717,4231.281948,4229.743486,4226.153743,4224.102461,4223.07682,4217.435794,4242.051178,4231.794768,4228.717845,4235.384512,4228.205025,4233.84605
4246.666563,4228.205025,4224.102461,4221.538358,4224.102461,4226.153743,4219.999897,4216.922974,4236.922973,4223.58964,4228.205025,4231.281948,4229.743486,4231.281948
4249.743486,4232.307589,4221.025538,4226.153743,4231.281948,4228.717845,4220.512717,4217.948615,4245.640922,4222.051179,4236.922973,4233.33323,4234.871691,4235.384512
4251.281947,4234.358871,4224.615281,4231.794768,4227.179384,4228.717845,4223.58964,4217.948615,4251.794768,4224.102461,4234.358871,4235.384512,4234.358871,4233.33323
4247.179383,4226.153743,4224.102461,4226.153743,4223.07682,4226.153743,4218.974256,4213.33323,4231.794768,4216.410153,4222.563999,4230.769127,4223.58964,4228.205025
4238.461435,4221.025538,4218.974256,4219.999897,4231.794768,4230.769127,4216.410153,4210.769128,4214.358871,4213.33323,4217.435794,4224.615281,4212.82041,4221.025538
4241.538358,4228.717845,4221.025538,4224.615281,4235.384512,4231.281948,4219.487076,4215.384512,4224.615281,4218.974256,4225.640922,4228.205025,4218.974256,4222.051179
4257.435793,4236.922973,4231.281948,4231.794768,4229.230666,4227.179384,4217.948615,4216.410153,4243.076819,4219.999897,4233.84605,4235.384512,4231.281948,4233.33323
4263.076819,4234.358871,4234.871691,4232.820409,4230.256307,4227.692204,4215.384512,4214.358871,4251.794768,4224.615281,4234.358871,4235.897332,4233.33323,4236.922973
4261.025537,4231.794768,4232.307589,4230.256307,4235.384512,4228.205025,4222.563999,4222.051179,4260.512716,4234.871691,4234.358871,4231.281948,4233.84605,4232.307589
4263.589639,4234.871691,4232.820409,4228.205025,4229.743486,4228.205025,4230.256307,4233.33323,4265.640921,4234.871691,4235.384512,4225.128102,4235.384512,4232.307589
4260.512716,4231.281948,4230.769127,4225.128102,4218.974256,4228.717845,4229.743486,4229.743486,4250.769127,4222.563999,4230.769127,4211.794769,4232.820409,4234.871691
4249.230665,4220.512717,4220.512717,4218.461435,4214.871692,4231.794768,4230.256307,4217.948615,4224.102461,4206.153743,4221.538358,4191.794769,4223.58964,4227.179384
4245.640922,4214.871692,4214.358871,4214.871692,4218.461435,4227.692204,4229.743486,4212.307589,4201.025538,4197.435795,4215.897333,4175.384513,4215.384512,4218.461435
4246.153742,4215.384512,4215.384512,4217.948615,4217.435794,4224.102461,4222.051179,4211.794769,4184.615282,4194.871692,4214.358871,4167.179385,4213.33323,4215.384512
4246.666563,4217.435794,4217.948615,4222.051179,4212.82041,4223.07682,4218.461435,4212.82041,4177.435795,4196.922974,4214.358871,4170.256308,4213.33323,4214.358871
4255.897332,4218.974256,4224.102461,4224.102461,4215.384512,4228.205025,4224.615281,4216.410153,4195.384513,4208.717846,4221.025538,4186.153744,4214.871692,4220.512717
4261.025537,4218.461435,4225.640922,4224.615281,4219.999897,4229.230666,4224.615281,4222.051179,4215.384512,4218.974256,4231.794768,4199.487077,4217.435794,4227.692204
4255.384511,4216.922974,4221.538358,4222.051179,4217.948615,4227.179384,4218.461435,4228.205025,4218.461435,4215.384512,4229.743486,4198.974256,4216.410153,4228.205025
4253.84605,4216.410153,4217.435794,4219.999897,4214.358871,4222.051179,4215.897333,4231.281948,4212.82041,4212.307589,4218.974256,4197.435795,4216.922974,4225.128102
4260.512716,4212.82041,4218.461435,4220.512717,4216.410153,4224.615281,4217.948615,4231.794768,4213.33323,4214.358871,4222.563999,4203.589641,4219.999897,4223.58964
4263.076819,4213.33323,4220.512717,4221.025538,4217.948615,4227.179384,4220.512717,4226.153743,4213.33323,4213.846051,4227.692204,4203.07682,4217.435794,4223.07682
4263.589639,4217.435794,4221.025538,4221.538358,4214.358871,4227.692204,4219.487076,4219.487076,4214.871692,4215.384512,4221.025538,4203.07682,4211.794769,4225.128102
4267.692203,4214.871692,4226.153743,4221.025538,4212.307589,4228.205025,4222.563999,4224.102461,4222.051179,4218.461435,4223.58964,4212.82041,4214.871692,4231.281948
4270.256306,4210.769128,4228.717845,4219.999897,4216.410153,4228.205025,4224.615281,4231.281948,4231.794768,4217.948615,4232.820409,4221.538358,4222.051179,4231.794768
4267.692203,4207.692205,4221.025538,4216.922974,4213.846051,4224.102461,4222.051179,4223.07682,4227.179384,4213.846051,4225.128102,4218.974256,4218.974256,4223.07682
4261.025537,4203.589641,4216.922974,4215.384512,4206.666564,4223.07682,4223.07682,4214.358871,4211.281948,4211.794769,4213.846051,4215.384512,4213.846051,4216.410153
4261.538357,4205.640923,4216.922974,4214.871692,4210.256307,4229.230666,4223.07682,4221.538358,4206.666564,4213.33323,4216.922974,4214.358871,4217.948615,4221.025538
4269.230665,4214.871692,4216.410153,4218.974256,4221.538358,4229.230666,4221.025538,4230.256307,4221.025538,4217.948615,4226.153743,4216.922974,4226.153743,4231.794768
4268.205024,4218.461435,4217.948615,4219.999897,4221.025538,4226.666563,4224.615281,4234.871691,4237.948614,4223.58964,4232.307589,4221.025538,4232.820409,4232.307589
4261.538357,4214.358871,4214.871692,4215.384512,4215.384512,4226.153743,4225.640922,4229.743486,4231.281948,4221.025538,4224.102461,4216.922974,4229.743486,4222.563999
4264.61528,4214.358871,4209.743487,4216.922974,4221.538358,4229.230666,4215.897333,4215.897333,4210.769128,4212.307589,4213.33323,4212.82041,4216.922974,4215.384512
4276.410152,4220.512717,4216.922974,4226.153743,4232.307589,4227.179384,4214.871692,4213.846051,4214.358871,4213.846051,4225.128102,4223.07682,4214.871692,4223.07682
4278.974254,4221.538358,4223.58964,4225.128102,4231.794768,4228.717845,4218.974256,4219.999897,4234.871691,4220.512717,4233.84605,4228.717845,4219.487076,4231.281948
4272.820408,4217.435794,4217.435794,4218.461435,4223.58964,4227.692204,4216.922974,4217.948615,4224.102461,4209.743487,4220.512717,4218.461435,4217.435794,4227.179384
4273.846049,4219.999897,4214.871692,4222.563999,4224.102461,4228.205025,4218.974256,4215.897333,4204.615282,4195.384513,4212.82041,4211.794769,4216.922974,4222.563999
4287.179382,4228.717845,4220.512717,4229.230666,4228.205025,4228.205025,4221.025538,4221.538358,4215.384512,4203.589641,4221.538358,4217.948615,4225.640922,4230.256307
4310.256305,4237.948614,4229.230666,4234.358871,4219.487076,4230.256307,4223.07682,4229.743486,4249.743486,4219.487076,4229.743486,4228.205025,4240.512717,4250.256306
4335.89733,4243.58964,4237.435794,4236.922973,4213.33323,4226.153743,4224.615281,4229.743486,4275.384511,4221.538358,4233.33323,4240.512717,4247.179383,4273.846049
4368.717842,4249.230665,4246.153742,4236.410153,4215.897333,4225.640922,4222.563999,4223.58964,4292.820408,4215.384512,4240.512717,4254.871691,4246.153742,4299.487074
4409.743482,4265.128101,4255.384511,4240.512717,4218.461435,4224.102461,4214.871692,4212.82041,4310.769125,4209.743487,4248.205024,4265.128101,4255.897332,4327.692202
4441.538353,4283.589639,4262.563998,4249.743486,4216.922974,4222.563999,4208.205025,4205.128102,4329.743484,4202.564,4247.692204,4268.205024,4270.769126,4347.692201
4443.076814,4285.640921,4261.025537,4249.743486,4216.922974,4223.07682,4213.33323,4208.205025,4339.487073,4199.487077,4236.922973,4265.128101,4267.692203,4345.128099
4425.128097,4275.384511,4253.84605,4241.538358,4217.435794,4223.07682,4214.871692,4210.256307,4331.281945,4195.897333,4233.84605,4261.025537,4256.410152,4330.256304
4419.487071,4274.35887,4254.35887,4241.025537,4216.922974,4218.974256,4205.640923,4205.640923,4323.589638,4197.435795,4244.10246,4263.076819,4263.589639,4329.743484
4417.435789,4275.384511,4259.999896,4242.563999,4218.974256,4220.512717,4199.999897,4206.666564,4333.846048,4207.179384,4250.769127,4267.692203,4269.230665,4328.205022
4396.410149,4267.692203,4254.35887,4241.538358,4225.640922,4224.102461,4202.564,4211.794769,4332.307586,4207.692205,4244.615281,4265.640921,4254.871691,4308.205023
4372.307585,4263.076819,4245.640922,4241.538358,4232.307589,4220.512717,4207.179384,4212.307589,4313.846048,4204.102461,4242.051178,4261.538357,4244.10246,4288.717844
4361.025534,4261.025537,4247.692204,4238.461435,4233.33323,4222.051179,4212.82041,4216.410153,4313.333228,4213.846051,4248.205024,4258.974255,4252.307588,4283.589639
4349.230663,4251.281947,4242.563999,4233.33323,4227.179384,4225.128102,4218.974256,4221.025538,4315.89733,4222.563999,4246.666563,4253.84605,4251.794768,4276.410152
4323.076817,4233.33323,4222.563999,4227.692204,4219.999897,4224.615281,4216.922974,4216.922974,4289.743485,4217.435794,4234.871691,4241.538358,4232.307589,4256.410152
4304.102459,4223.58964,4214.358871,4226.153743,4218.461435,4223.07682,4212.82041,4216.410153,4258.461434,4214.358871,4229.743486,4232.307589,4225.128102,4242.563999
4306.153741,4228.205025,4224.615281,4229.743486,4222.051179,4226.153743,4216.922974,4220.512717,4258.974255,4218.461435,4234.358871,4238.974255,4230.769127,4243.58964
4306.153741,4229.743486,4229.743486,4229.743486,4218.461435,4220.512717,4213.33323,4216.410153,4254.871691,4216.922974,4232.307589,4244.10246,4223.58964,4243.076819
4288.205023,4219.999897,4219.999897,4222.563999,4212.82041,4219.999897,4204.615282,4211.281948,4231.281948,4211.794769,4222.563999,4233.84605,4211.794769,4230.769127
4278.974254,4214.358871,4212.307589,4222.051179,4217.948615,4224.615281,4207.179384,4214.358871,4217.435794,4216.410153,4223.58964,4228.205025,4214.358871,4225.640922
4279.999895,4217.435794,4215.897333,4224.615281,4221.025538,4225.128102,4214.358871,4216.922974,4223.07682,4217.435794,4230.256307,4233.33323,4222.051179,4227.179384
4268.205024,4213.846051,4214.871692,4215.897333,4218.461435,4219.999897,4212.82041,4212.82041,4210.256307,4204.615282,4223.58964,4230.769127,4217.435794,4219.487076
4259.999896,4210.256307,4213.33323,4215.384512,4222.563999,4219.487076,4209.743487,4214.871692,4198.974256,4205.128102,4216.922974,4227.179384,4214.358871,4213.33323
4262.563998,4219.487076,4219.487076,4227.692204,4227.179384,4218.974256,4209.743487,4218.974256,4209.230666,4216.922974,4224.615281,4234.871691,4226.153743,4216.410153
4265.128101,4234.871691,4232.820409,4235.384512,4228.717845,4220.512717,4215.384512,4219.487076,4233.33323,4221.025538,4239.999896,4245.128101,4236.922973,4226.666563
4266.666562,4243.076819,4240.512717,4235.384512,4229.743486,4224.615281,4228.205025,4229.743486,4264.61528,4228.205025,4249.230665,4255.897332,4235.384512,4236.410153
4258.461434,4236.922973,4237.948614,4231.281948,4223.07682,4226.666563,4233.33323,4246.153742,4279.487075,4239.999896,4246.666563,4255.897332,4228.717845,4234.358871
4248.205024,4228.717845,4237.435794,4229.743486,4217.435794,4227.692204,4230.769127,4251.794768,4273.846049,4243.58964,4245.128101,4251.794768,4228.717845,4230.256307
4248.205024,4229.743486,4241.538358,4232.307589,4219.487076,4230.769127,4237.435794,4244.10246,4274.87169,4235.897332,4246.666563,4252.307588,4229.743486,4229.743486
4242.051178,4228.205025,4237.435794,4231.281948,4218.974256,4230.769127,4235.897332,4227.179384,4262.563998,4221.538358,4235.384512,4244.10246,4223.07682,4221.025538
4227.179384,4223.58964,4227.179384,4230.256307,4223.07682,4224.615281,4218.461435,4209.743487,4221.025538,4208.205025,4221.025538,4230.256307,4211.281948,4207.179384
4228.717845,4225.128102,4225.640922,4231.281948,4230.769127,4224.102461,4214.871692,4213.33323,4208.717846,4210.256307,4227.179384,4229.230666,4213.33323,4208.205025
4239.999896,4232.820409,4231.281948,4234.358871,4227.179384,4227.179384,4225.128102,4231.794768,4233.84605,4222.563999,4235.897332,4235.897332,4226.153743,4217.435794
4237.948614,4237.948614,4235.384512,4236.410153,4225.640922,4230.256307,4228.205025,4237.948614,4249.743486,4231.794768,4232.820409,4236.410153,4226.153743,4215.897333
4216.922974,4224.102461,4226.666563,4230.256307,4232.307589,4224.615281,4222.051179,4232.307589,4237.435794,4229.230666,4228.717845,4229.230666,4210.256307,4203.07682
4205.128102,4205.640923,4216.922974,4222.563999,4231.794768,4224.615281,4221.025538,4226.666563,4216.410153,4221.025538,4222.051179,4221.538358,4199.487077,4196.922974
4221.538358,4217.435794,4221.025538,4227.692204,4227.692204,4225.640922,4222.563999,4219.487076,4202.564,4217.948615,4218.461435,4222.051179,4206.153743,4202.564
4237.435794,4236.922973,4229.230666,4234.358871,4226.153743,4227.179384,4222.563999,4217.948615,4206.153743,4213.846051,4223.07682,4229.743486,4217.435794,4209.743487
4232.307589,4231.794768,4228.205025,4230.769127,4223.07682,4223.58964,4223.07682,4229.743486,4214.871692,4212.307589,4223.58964,4229.743486,4215.897333,4214.358871
4232.307589,4226.153743,4225.128102,4229.230666,4220.512717,4224.102461,4221.538358,4237.948614,4218.461435,4217.435794,4218.974256,4223.07682,4207.692205,4214.358871
4231.794768,4230.769127,4221.538358,4231.794768,4218.974256,4223.58964,4215.897333,4222.051179,4199.487077,4209.743487,4214.358871,4216.410153,4201.025538,4206.666564
4223.58964,4230.769127,4218.974256,4231.794768,4218.974256,4221.025538,4210.769128,4200.512718,4176.410154,4195.897333,4211.794769,4215.897333,4194.358872,4202.051179
4221.538358,4234.871691,4222.051179,4233.84605,4221.538358,4217.948615,4207.179384,4196.410154,4172.30759,4200.512718,4217.948615,4220.512717,4197.435795,4206.666564
4215.384512,4230.256307,4217.948615,4231.281948,4222.051179,4221.538358,4204.615282,4198.461436,4166.666565,4197.948615,4214.871692,4210.769128,4202.564,4198.974256
4203.07682,4219.487076,4208.717846,4226.666563,4218.974256,4225.640922,4205.128102,4202.564,4145.128104,4184.102462,4201.538359,4195.897333,4189.230667,4185.128103
4209.230666,4225.128102,4211.794769,4232.307589,4216.922974,4224.615281,4208.205025,4210.256307,4149.230668,4197.435795,4206.153743,4203.589641,4183.589641,4192.82041
4221.538358,4234.358871,4220.512717,4235.384512,4224.615281,4222.563999,4205.640923,4209.230666,4171.281949,4215.897333,4219.999897,4217.435794,4197.948615,4202.564
4218.974256,4234.358871,4222.563999,4233.33323,4231.281948,4221.538358,4201.025538,4200.512718,4172.30759,4206.666564,4217.948615,4216.922974,4203.07682,4201.025538
4215.384512,4232.307589,4218.974256,4234.871691,4222.563999,4221.025538,4202.051179,4198.974256,4164.102462,4194.358872,4209.230666,4211.794769,4193.333231,4195.384513
4215.384512,4223.07682,4214.871692,4229.230666,4212.82041,4219.487076,4210.769128,4202.564,4158.974257,4194.871692,4209.743487,4212.82041,4192.30759,4190.769128
4213.33323,4212.82041,4215.384512,4221.538358,4217.435794,4223.07682,4217.435794,4208.717846,4159.999898,4196.410154,4215.897333,4214.871692,4198.461436,4192.30759
4214.358871,4217.948615,4225.128102,4225.640922,4221.025538,4221.538358,4216.922974,4216.410153,4169.743488,4201.025538,4219.999897,4218.974256,4199.999897,4203.589641
4214.871692,4220.512717,4223.58964,4228.205025,4213.846051,4218.974256,4215.384512,4218.461435,4179.999898,4208.205025,4217.948615,4221.025538,4201.538359,4205.128102
4214.871692,4214.358871,4214.358871,4225.640922,4211.794769,4221.025538,4216.410153,4224.615281,4181.538359,4211.794769,4216.410153,4217.435794,4203.589641,4197.435795
4217.435794,4216.410153,4217.435794,4230.256307,4216.922974,4226.666563,4221.538358,4232.307589,4188.205026,4216.410153,4219.487076,4217.435794,4199.999897,4199.999897
4211.794769,4216.922974,4216.922974,4230.769127,4221.025538,4223.58964,4225.128102,4222.051179,4186.666564,4213.33323,4218.461435,4217.435794,4190.769128,4202.564
4207.692205,4216.922974,4206.666564,4225.128102,4222.051179,4223.58964,4228.205025,4214.871692,4183.076821,4208.717846,4216.410153,4215.384512,4191.794769,4201.025538
4208.205025,4219.487076,4206.666564,4226.153743,4218.461435,4226.666563,4226.153743,4224.102461,4184.615282,4210.769128,4216.410153,4214.871692,4198.974256,4197.948615
4206.666564,4217.435794,4216.410153,4229.230666,4217.948615,4228.205025,4223.07682,4230.769127,4189.230667,4214.358871,4218.974256,4217.948615,4199.999897,4196.410154
